%OpenBCI Raw EXG Data
%Number of channels = 8
%Sample Rate = 250 Hz
%Board = OpenBCI_GUI$BoardCytonSerial
Sample Index, EXG Channel 0, EXG Channel 1, EXG Channel 2, EXG Channel 3, EXG Channel 4, EXG Channel 5, EXG Channel 6, EXG Channel 7, Accel Channel 0, Accel Channel 1, Accel Channel 2, Other, Other, Other, Other, Other, Other, Other, Analog Channel 0, Analog Channel 1, Analog Channel 2, Timestamp, Other, Timestamp (Formatted)
0.0, 0.0, 0.0, -168411.1408485342, -187500.02235174447, -187500.02235174447, -170454.62673361623, 0.0, -187500.02235174447, 0.114, 0.006, 0.998, 192.0, 3.0, 144.0, 0.0, 48.0, 31.0, 48.0, 0.0, 0.0, 0.0, 1.709421368898536E9, 0.0, 2024-03-02 15:16:08.898
1.0, 0.0, 0.0, -168693.2198635602, -187500.02235174447, -187500.02235174447, -170667.10241640836, 0.0, -187500.02235174447, 0.114, 0.006, 0.998, 192.0, 0.0, 0.0, 0.0, 0.0, 0.0, 0.0, 0.0, 0.0, 0.0, 1.709421368898553E9, 0.0, 2024-03-02 15:16:08.898
2.0, 0.0, 0.0, -167971.37027637605, -187500.02235174447, -187500.02235174447, -169900.43758159134, 0.0, -187500.02235174447, 0.114, 0.006, 0.998, 192.0, 0.0, 0.0, 0.0, 0.0, 0.0, 0.0, 0.0, 0.0, 0.0, 1.7094213688985596E9, 0.0, 2024-03-02 15:16:08.898
3.0, 0.0, 0.0, -167590.4518473687, -187500.02235174447, -187500.02235174447, -169586.3285167609, 0.0, -187500.02235174447, 0.114, 0.006, 0.998, 192.0, 0.0, 0.0, 0.0, 0.0, 0.0, 0.0, 0.0, 0.0, 0.0, 1.7094213688985655E9, 0.0, 2024-03-02 15:16:08.898
4.0, 0.0, 0.0, -168273.3646957117, -187500.02235174447, -187500.02235174447, -170324.15960123058, 0.0, -187500.02235174447, 0.114, 0.006, 0.998, 192.0, 0.0, 0.0, 0.0, 0.0, 0.0, 0.0, 0.0, 0.0, 0.0, 1.709421368898572E9, 0.0, 2024-03-02 15:16:08.898
5.0, 0.0, 0.0, -168730.12259365592, -187500.02235174447, -187500.02235174447, -170721.17128624575, 0.0, -187500.02235174447, 0.114, 0.006, 0.998, 192.0, 0.0, 0.0, 0.0, 0.0, 0.0, 0.0, 0.0, 0.0, 0.0, 1.7094213688985775E9, 0.0, 2024-03-02 15:16:08.898
6.0, 0.0, 0.0, -168121.931627027, -187500.02235174447, -187500.02235174447, -170053.5246793657, 0.0, -187500.02235174447, 0.114, 0.006, 0.998, 192.0, 0.0, 0.0, 0.0, 0.0, 0.0, 0.0, 0.0, 0.0, 0.0, 1.709421368898583E9, 0.0, 2024-03-02 15:16:08.898
7.0, 0.0, 0.0, -167565.57435578996, -187500.02235174447, -187500.02235174447, -169549.53754538746, 0.0, -187500.02235174447, 0.12, -0.006, 0.992, 192.0, 3.0, 192.0, 255.0, 208.0, 31.0, 0.0, 0.0, 0.0, 0.0, 1.7094213688985884E9, 0.0, 2024-03-02 15:16:08.898
8.0, 0.0, 0.0, -168105.81601927473, -187500.02235174447, -187500.02235174447, -170150.75476774632, 0.0, -187500.02235174447, 0.12, -0.006, 0.992, 192.0, 0.0, 0.0, 0.0, 0.0, 0.0, 0.0, 0.0, 0.0, 0.0, 1.7094213688985941E9, 0.0, 2024-03-02 15:16:08.898
9.0, 0.0, 0.0, -168729.42968957778, -187500.02235174447, -187500.02235174447, -170738.2480190096, 0.0, -187500.02235174447, 0.12, -0.006, 0.992, 192.0, 0.0, 0.0, 0.0, 0.0, 0.0, 0.0, 0.0, 0.0, 0.0, 1.7094213688985999E9, 0.0, 2024-03-02 15:16:08.898
10.0, 0.0, 0.0, -168246.69906457653, -187500.02235174447, -187500.02235174447, -170187.38927690857, 0.0, -187500.02235174447, 0.12, -0.006, 0.992, 192.0, 0.0, 0.0, 0.0, 0.0, 0.0, 0.0, 0.0, 0.0, 0.0, 1.7094213688986056E9, 0.0, 2024-03-02 15:16:08.898
11.0, 0.0, 0.0, -167590.22832992417, -187500.02235174447, -187500.02235174447, -169554.29846695645, 0.0, -187500.02235174447, 0.12, -0.006, 0.992, 192.0, 0.0, 0.0, 0.0, 0.0, 0.0, 0.0, 0.0, 0.0, 0.0, 1.7094213688986113E9, 0.0, 2024-03-02 15:16:08.898
12.0, 0.0, 0.0, -167927.24793282128, -187500.02235174447, -187500.02235174447, -169958.35095147503, 0.0, -187500.02235174447, 0.12, -0.006, 0.992, 192.0, 0.0, 0.0, 0.0, 0.0, 0.0, 0.0, 0.0, 0.0, 0.0, 1.709421368898617E9, 0.0, 2024-03-02 15:16:08.898
13.0, 0.0, 0.0, -168668.94586908174, -187500.02235174447, -187500.02235174447, -170686.72724804012, 0.0, -187500.02235174447, 0.12, -0.006, 0.992, 192.0, 0.0, 0.0, 0.0, 0.0, 0.0, 0.0, 0.0, 0.0, 0.0, 1.7094213688986225E9, 0.0, 2024-03-02 15:16:08.898
14.0, 0.0, 0.0, -168367.6890573131, -187500.02235174447, -187500.02235174447, -170310.12270571265, 0.0, -187500.02235174447, 0.12, -0.006, 0.992, 192.0, 0.0, 0.0, 0.0, 0.0, 0.0, 0.0, 0.0, 0.0, 0.0, 1.7094213688986278E9, 0.0, 2024-03-02 15:16:08.898
15.0, 0.0, 0.0, -167617.45275467072, -187500.02235174447, -187500.02235174447, -169571.4646066981, 0.0, -187500.02235174447, 0.12, -0.006, 0.992, 192.0, 0.0, 0.0, 0.0, 0.0, 0.0, 0.0, 0.0, 0.0, 0.0, 1.7094213688986332E9, 0.0, 2024-03-02 15:16:08.898
16.0, 0.0, 0.0, -167757.86641333895, -187500.02235174447, -187500.02235174447, -169777.54769057606, 0.0, -187500.02235174447, 0.12, -0.006, 0.992, 192.0, 0.0, 0.0, 0.0, 0.0, 0.0, 0.0, 0.0, 0.0, 0.0, 1.7094213688986387E9, 0.0, 2024-03-02 15:16:08.898
17.0, 0.0, 0.0, -168561.16575731823, -187500.02235174447, -187500.02235174447, -170596.49325567405, 0.0, -187500.02235174447, 0.122, -0.004, 0.994, 192.0, 3.0, 208.0, 255.0, 224.0, 31.0, 16.0, 0.0, 0.0, 0.0, 1.7094213688986447E9, 0.0, 2024-03-02 15:16:08.898
18.0, 0.0, 0.0, -168493.19410242964, -187500.02235174447, -187500.02235174447, -170454.11264349375, 0.0, -187500.02235174447, 0.122, -0.004, 0.994, 192.0, 0.0, 0.0, 0.0, 0.0, 0.0, 0.0, 0.0, 0.0, 0.0, 1.7094213688986502E9, 0.0, 2024-03-02 15:16:08.898
19.0, 0.0, 0.0, -167679.79176995656, -187500.02235174447, -187500.02235174447, -169621.37605206683, 0.0, -187500.02235174447, 0.122, -0.004, 0.994, 192.0, 0.0, 0.0, 0.0, 0.0, 0.0, 0.0, 0.0, 0.0, 0.0, 1.7094213688986557E9, 0.0, 2024-03-02 15:16:08.898
20.0, 0.0, 0.0, -167635.13298453487, -187500.02235174447, -187500.02235174447, -169653.04847396, 0.0, -187500.02235174447, 0.122, -0.004, 0.994, 192.0, 0.0, 0.0, 0.0, 0.0, 0.0, 0.0, 0.0, 0.0, 0.0, 1.7094213688986611E9, 0.0, 2024-03-02 15:16:08.898
21.0, 0.0, 0.0, -168410.22442701156, -187500.02235174447, -187500.02235174447, -170447.87650679072, 0.0, -187500.02235174447, 0.122, -0.004, 0.994, 192.0, 0.0, 0.0, 0.0, 0.0, 0.0, 0.0, 0.0, 0.0, 0.0, 1.7094213688986666E9, 0.0, 2024-03-02 15:16:08.898
22.0, 0.0, 0.0, -168529.73920461407, -187500.02235174447, -187500.02235174447, -170494.7481149135, 0.0, -187500.02235174447, 0.122, -0.004, 0.994, 192.0, 0.0, 0.0, 0.0, 0.0, 0.0, 0.0, 0.0, 0.0, 0.0, 1.7094213688986757E9, 0.0, 2024-03-02 15:16:08.898
23.0, 0.0, 0.0, -167715.71102329626, -187500.02235174447, -187500.02235174447, -169650.79094777, 0.0, -187500.02235174447, 0.122, -0.004, 0.994, 192.0, 0.0, 0.0, 0.0, 0.0, 0.0, 0.0, 0.0, 0.0, 0.0, 1.7094213688986812E9, 0.0, 2024-03-02 15:16:08.898
24.0, 0.0, 0.0, -167392.2142257946, -187500.02235174447, -187500.02235174447, -169378.41258983762, 0.0, -187500.02235174447, 0.122, -0.004, 0.994, 192.0, 0.0, 0.0, 0.0, 0.0, 0.0, 0.0, 0.0, 0.0, 0.0, 1.709421368898687E9, 0.0, 2024-03-02 15:16:08.898
25.0, 0.0, 0.0, -168146.8314703502, -187500.02235174447, -187500.02235174447, -170184.14827396255, 0.0, -187500.02235174447, 0.122, -0.004, 0.994, 192.0, 0.0, 0.0, 0.0, 0.0, 0.0, 0.0, 0.0, 0.0, 0.0, 1.7094213688986924E9, 0.0, 2024-03-02 15:16:08.898
26.0, 0.0, 0.0, -168507.29805318094, -187500.02235174447, -187500.02235174447, -170484.1310362972, 0.0, -187500.02235174447, 0.122, -0.004, 0.994, 192.0, 0.0, 0.0, 0.0, 0.0, 0.0, 0.0, 0.0, 0.0, 0.0, 1.709421368898698E9, 0.0, 2024-03-02 15:16:08.898
27.0, 0.0, 0.0, -167790.16468407688, -187500.02235174447, -187500.02235174447, -169716.1027450684, 0.0, -187500.02235174447, 0.122, -0.006, 0.992, 192.0, 3.0, 208.0, 255.0, 208.0, 31.0, 0.0, 0.0, 0.0, 0.0, 1.7094213688987036E9, 0.0, 2024-03-02 15:16:08.898
28.0, 0.0, 0.0, -167319.32518712583, -187500.02235174447, -187500.02235174447, -169300.0026702884, 0.0, -187500.02235174447, 0.122, -0.006, 0.992, 192.0, 0.0, 0.0, 0.0, 0.0, 0.0, 0.0, 0.0, 0.0, 0.0, 1.709421368898709E9, 0.0, 2024-03-02 15:16:08.898
29.0, 0.0, 0.0, -167982.65790732598, -187500.02235174447, -187500.02235174447, -170018.49949580425, 0.0, -187500.02235174447, 0.122, -0.006, 0.992, 192.0, 0.0, 0.0, 0.0, 0.0, 0.0, 0.0, 0.0, 0.0, 0.0, 1.7094213688987143E9, 0.0, 2024-03-02 15:16:08.898
30.0, 0.0, 0.0, -168526.49820166806, -187500.02235174447, -187500.02235174447, -170515.42347853465, 0.0, -187500.02235174447, 0.122, -0.006, 0.992, 192.0, 0.0, 0.0, 0.0, 0.0, 0.0, 0.0, 0.0, 0.0, 0.0, 1.7094213688987203E9, 0.0, 2024-03-02 15:16:08.898
31.0, 0.0, 0.0, -167959.97088670384, -187500.02235174447, -187500.02235174447, -169892.97209894325, 0.0, -187500.02235174447, 0.122, -0.006, 0.992, 192.0, 0.0, 0.0, 0.0, 0.0, 0.0, 0.0, 0.0, 0.0, 0.0, 1.7094213688987255E9, 0.0, 2024-03-02 15:16:08.898
32.0, 0.0, 0.0, -167362.37464694676, -187500.02235174447, -187500.02235174447, -169344.48264175447, 0.0, -187500.02235174447, 0.122, -0.006, 0.992, 192.0, 0.0, 0.0, 0.0, 0.0, 0.0, 0.0, 0.0, 0.0, 0.0, 1.7094213688987312E9, 0.0, 2024-03-02 15:16:08.898
33.0, 0.0, 0.0, -167767.96940183276, -187500.02235174447, -187500.02235174447, -169822.1841242533, 0.0, -187500.02235174447, 0.122, -0.006, 0.992, 192.0, 0.0, 0.0, 0.0, 0.0, 0.0, 0.0, 0.0, 0.0, 0.0, 1.7094213688987367E9, 0.0, 2024-03-02 15:16:08.898
34.0, 0.0, 0.0, -168477.503177822, -187500.02235174447, -187500.02235174447, -170511.73544069953, 0.0, -187500.02235174447, 0.122, -0.006, 0.992, 192.0, 0.0, 0.0, 0.0, 0.0, 0.0, 0.0, 0.0, 0.0, 0.0, 1.709421368898742E9, 0.0, 2024-03-02 15:16:08.898
35.0, 0.0, 0.0, -168094.23781564686, -187500.02235174447, -187500.02235174447, -170043.75696703876, 0.0, -187500.02235174447, 0.122, -0.006, 0.992, 192.0, 0.0, 0.0, 0.0, 0.0, 0.0, 0.0, 0.0, 0.0, 0.0, 1.7094213688987477E9, 0.0, 2024-03-02 15:16:08.898
36.0, 0.0, 0.0, -167368.83430109435, -187500.02235174447, -187500.02235174447, -169336.81599340632, 0.0, -187500.02235174447, 0.122, -0.006, 0.992, 192.0, 0.0, 0.0, 0.0, 0.0, 0.0, 0.0, 0.0, 0.0, 0.0, 1.7094213688987534E9, 0.0, 2024-03-02 15:16:08.898
37.0, 0.0, 0.0, -167683.7256769807, -187500.02235174447, -187500.02235174447, -169729.17851557478, 0.0, -187500.02235174447, 0.124, -0.008, 0.994, 192.0, 3.0, 224.0, 255.0, 192.0, 31.0, 16.0, 0.0, 0.0, 0.0, 1.709421368898759E9, 0.0, 2024-03-02 15:16:08.898
38.0, 0.0, 0.0, -168433.29142728943, -187500.02235174447, -187500.02235174447, -170473.67041989212, 0.0, -187500.02235174447, 0.124, -0.008, 0.994, 192.0, 0.0, 0.0, 0.0, 0.0, 0.0, 0.0, 0.0, 0.0, 0.0, 1.7094213688987641E9, 0.0, 2024-03-02 15:16:08.898
39.0, 0.0, 0.0, -168190.05974412677, -187500.02235174447, -187500.02235174447, -170154.37575034806, 0.0, -187500.02235174447, 0.124, -0.008, 0.994, 192.0, 0.0, 0.0, 0.0, 0.0, 0.0, 0.0, 0.0, 0.0, 0.0, 1.7094213688987699E9, 0.0, 2024-03-02 15:16:08.898
40.0, 0.0, 0.0, -167360.20652773458, -187500.02235174447, -187500.02235174447, -169330.04341483634, 0.0, -187500.02235174447, 0.124, -0.008, 0.994, 192.0, 0.0, 0.0, 0.0, 0.0, 0.0, 0.0, 0.0, 0.0, 0.0, 1.709421368898775E9, 0.0, 2024-03-02 15:16:08.898
41.0, 0.0, 0.0, -167404.73120268955, -187500.02235174447, -187500.02235174447, -169444.5514016809, 0.0, -187500.02235174447, 0.124, -0.008, 0.994, 192.0, 0.0, 0.0, 0.0, 0.0, 0.0, 0.0, 0.0, 0.0, 0.0, 1.7094213688987808E9, 0.0, 2024-03-02 15:16:08.898
42.0, 0.0, 0.0, -168193.61367149517, -187500.02235174447, -187500.02235174447, -170247.09078634868, 0.0, -187500.02235174447, 0.124, -0.008, 0.994, 192.0, 0.0, 0.0, 0.0, 0.0, 0.0, 0.0, 0.0, 0.0, 0.0, 1.7094213688987863E9, 0.0, 2024-03-02 15:16:08.898
43.0, 0.0, 0.0, -168173.98883986342, -187500.02235174447, -187500.02235174447, -170154.2192881369, 0.0, -187500.02235174447, 0.124, -0.008, 0.994, 192.0, 0.0, 0.0, 0.0, 0.0, 0.0, 0.0, 0.0, 0.0, 0.0, 1.7094213688987932E9, 0.0, 2024-03-02 15:16:08.898
44.0, 0.0, 0.0, -167404.08300210035, -187500.02235174447, -187500.02235174447, -169359.07833088379, 0.0, -187500.02235174447, 0.124, -0.008, 0.994, 192.0, 0.0, 0.0, 0.0, 0.0, 0.0, 0.0, 0.0, 0.0, 0.0, 1.7094213688987987E9, 0.0, 2024-03-02 15:16:08.898
45.0, 0.0, 0.0, -167251.80056712637, -187500.02235174447, -187500.02235174447, -169275.72867580995, 0.0, -187500.02235174447, 0.124, -0.008, 0.994, 192.0, 0.0, 0.0, 0.0, 0.0, 0.0, 0.0, 0.0, 0.0, 0.0, 1.7094213688988042E9, 0.0, 2024-03-02 15:16:08.898
46.0, 0.0, 0.0, -168048.99788486934, -187500.02235174447, -187500.02235174447, -170111.72862192735, 0.0, -187500.02235174447, 0.124, -0.008, 0.994, 192.0, 0.0, 0.0, 0.0, 0.0, 0.0, 0.0, 0.0, 0.0, 0.0, 1.7094213688988097E9, 0.0, 2024-03-02 15:16:08.898
47.0, 0.0, 0.0, -168273.47645443399, -187500.02235174447, -187500.02235174447, -170260.5912399997, 0.0, -187500.02235174447, 0.12, -0.01, 0.992, 192.0, 3.0, 192.0, 255.0, 176.0, 31.0, 0.0, 0.0, 0.0, 0.0, 1.7094213688988152E9, 0.0, 2024-03-02 15:16:08.898
48.0, 0.0, 0.0, -167471.92054652222, -187500.02235174447, -187500.02235174447, -169416.58936936728, 0.0, -187500.02235174447, 0.12, -0.01, 0.992, 192.0, 0.0, 0.0, 0.0, 0.0, 0.0, 0.0, 0.0, 0.0, 0.0, 1.7094213688988204E9, 0.0, 2024-03-02 15:16:08.898
49.0, 0.0, 0.0, -167105.75426885538, -187500.02235174447, -187500.02235174447, -169119.19940938943, 0.0, -187500.02235174447, 0.12, -0.01, 0.992, 192.0, 0.0, 0.0, 0.0, 0.0, 0.0, 0.0, 0.0, 0.0, 0.0, 1.7094213688988512E9, 0.0, 2024-03-02 15:16:08.898
50.0, 0.0, 0.0, -167802.7040127163, -187500.02235174447, -187500.02235174447, -169865.5912119855, 0.0, -187500.02235174447, 0.12, -0.01, 0.992, 192.0, 0.0, 0.0, 0.0, 0.0, 0.0, 0.0, 0.0, 0.0, 0.0, 1.7094213688988683E9, 0.0, 2024-03-02 15:16:08.898
51.0, 0.0, 0.0, -168226.18016316654, -187500.02235174447, -187500.02235174447, -170231.04223382976, 0.0, -187500.02235174447, 0.12, -0.01, 0.992, 192.0, 0.0, 0.0, 0.0, 0.0, 0.0, 0.0, 0.0, 0.0, 0.0, 1.7094213688988788E9, 0.0, 2024-03-02 15:16:08.898
52.0, 0.0, 0.0, -167588.77546653457, -187500.02235174447, -187500.02235174447, -169530.9185422562, 0.0, -187500.02235174447, 0.12, -0.01, 0.992, 192.0, 0.0, 0.0, 0.0, 0.0, 0.0, 0.0, 0.0, 0.0, 0.0, 1.7094213688988843E9, 0.0, 2024-03-02 15:16:08.898
53.0, 0.0, 0.0, -167060.4919863334, -187500.02235174447, -187500.02235174447, -169052.658266146, 0.0, -187500.02235174447, 0.12, -0.01, 0.992, 192.0, 0.0, 0.0, 0.0, 0.0, 0.0, 0.0, 0.0, 0.0, 0.0, 1.70942136889889E9, 0.0, 2024-03-02 15:16:08.898
54.0, 0.0, 0.0, -167578.4042571073, -187500.02235174447, -187500.02235174447, -169638.1398604083, 0.0, -187500.02235174447, 0.12, -0.01, 0.992, 192.0, 0.0, 0.0, 0.0, 0.0, 0.0, 0.0, 0.0, 0.0, 0.0, 1.7094213688988957E9, 0.0, 2024-03-02 15:16:08.898
55.0, 0.0, 0.0, -168157.22503152193, -187500.02235174447, -187500.02235174447, -170178.76150354883, 0.0, -187500.02235174447, 0.12, -0.01, 0.992, 192.0, 0.0, 0.0, 0.0, 0.0, 0.0, 0.0, 0.0, 0.0, 0.0, 1.7094213688989012E9, 0.0, 2024-03-02 15:16:08.898
56.0, 0.0, 0.0, -167676.2825460771, -187500.02235174447, -187500.02235174447, -169624.72881373513, 0.0, -187500.02235174447, 0.12, -0.01, 0.992, 192.0, 0.0, 0.0, 0.0, 0.0, 0.0, 0.0, 0.0, 0.0, 0.0, 1.7094213688989072E9, 0.0, 2024-03-02 15:16:08.898
57.0, 0.0, 0.0, -167004.54556996175, -187500.02235174447, -187500.02235174447, -168988.15113164796, 0.0, -187500.02235174447, 0.11800000000000001, -0.01, 0.994, 192.0, 3.0, 176.0, 255.0, 176.0, 31.0, 16.0, 0.0, 0.0, 0.0, 1.709421368898913E9, 0.0, 2024-03-02 15:16:08.898
58.0, 0.0, 0.0, -167359.67008586766, -187500.02235174447, -187500.02235174447, -169408.72155531903, 0.0, -187500.02235174447, 0.11800000000000001, -0.01, 0.994, 192.0, 0.0, 0.0, 0.0, 0.0, 0.0, 0.0, 0.0, 0.0, 0.0, 1.7094213688989184E9, 0.0, 2024-03-02 15:16:08.898
59.0, 0.0, 0.0, -168149.2901622403, -187500.02235174447, -187500.02235174447, -170174.9170035025, 0.0, -187500.02235174447, 0.11800000000000001, -0.01, 0.994, 192.0, 0.0, 0.0, 0.0, 0.0, 0.0, 0.0, 0.0, 0.0, 0.0, 1.709421368898924E9, 0.0, 2024-03-02 15:16:08.898
60.0, 0.0, 0.0, -167866.33942918057, -187500.02235174447, -187500.02235174447, -169819.8818945744, 0.0, -187500.02235174447, 0.11800000000000001, -0.01, 0.994, 192.0, 0.0, 0.0, 0.0, 0.0, 0.0, 0.0, 0.0, 0.0, 0.0, 1.7094213688989294E9, 0.0, 2024-03-02 15:16:08.898
61.0, 0.0, 0.0, -167211.54507536234, -187500.02235174447, -187500.02235174447, -169181.89605258658, 0.0, -187500.02235174447, 0.11800000000000001, -0.01, 0.994, 192.0, 0.0, 0.0, 0.0, 0.0, 0.0, 0.0, 0.0, 0.0, 0.0, 1.7094213688989348E9, 0.0, 2024-03-02 15:16:08.898
62.0, 0.0, 0.0, -167426.94883667814, -187500.02235174447, -187500.02235174447, -169465.8526141468, 0.0, -187500.02235174447, 0.11800000000000001, -0.01, 0.994, 192.0, 0.0, 0.0, 0.0, 0.0, 0.0, 0.0, 0.0, 0.0, 0.0, 1.7094213688989408E9, 0.0, 2024-03-02 15:16:08.898
63.0, 0.0, 0.0, -168204.92365418957, -187500.02235174447, -187500.02235174447, -170244.45328050296, 0.0, -187500.02235174447, 0.11800000000000001, -0.01, 0.994, 192.0, 0.0, 0.0, 0.0, 0.0, 0.0, 0.0, 0.0, 0.0, 0.0, 1.7094213688989463E9, 0.0, 2024-03-02 15:16:08.898
64.0, 0.0, 0.0, -168084.24658587534, -187500.02235174447, -187500.02235174447, -170050.82011828665, 0.0, -187500.02235174447, 0.11800000000000001, -0.01, 0.994, 192.0, 0.0, 0.0, 0.0, 0.0, 0.0, 0.0, 0.0, 0.0, 0.0, 1.7094213688989713E9, 0.0, 2024-03-02 15:16:08.898
65.0, 0.0, 0.0, -167305.8917887082, -187500.02235174447, -187500.02235174447, -169270.36425714067, 0.0, -187500.02235174447, 0.11800000000000001, -0.01, 0.994, 192.0, 0.0, 0.0, 0.0, 0.0, 0.0, 0.0, 0.0, 0.0, 0.0, 1.7094213688989775E9, 0.0, 2024-03-02 15:16:08.898
66.0, 0.0, 0.0, -167284.94820415357, -187500.02235174447, -187500.02235174447, -169318.75578388642, 0.0, -187500.02235174447, 0.11800000000000001, -0.01, 0.994, 192.0, 0.0, 0.0, 0.0, 0.0, 0.0, 0.0, 0.0, 0.0, 0.0, 1.7094213688989832E9, 0.0, 2024-03-02 15:16:08.898
67.0, 0.0, 0.0, -168118.60121710316, -187500.02235174447, -187500.02235174447, -170172.97240173488, 0.0, -187500.02235174447, 0.12, -0.004, 0.992, 192.0, 3.0, 192.0, 255.0, 224.0, 31.0, 0.0, 0.0, 0.0, 0.0, 1.7094213688989892E9, 0.0, 2024-03-02 15:16:08.898
68.0, 0.0, 0.0, -168209.88574145862, -187500.02235174447, -187500.02235174447, -170188.10453273114, 0.0, -187500.02235174447, 0.12, -0.004, 0.992, 192.0, 0.0, 0.0, 0.0, 0.0, 0.0, 0.0, 0.0, 0.0, 0.0, 1.7094213688989952E9, 0.0, 2024-03-02 15:16:08.898
69.0, 0.0, 0.0, -167436.73890074957, -187500.02235174447, -187500.02235174447, -169380.8712817277, 0.0, -187500.02235174447, 0.12, -0.004, 0.992, 192.0, 0.0, 0.0, 0.0, 0.0, 0.0, 0.0, 0.0, 0.0, 0.0, 1.709421368899001E9, 0.0, 2024-03-02 15:16:08.899
70.0, 0.0, 0.0, -167242.83751759978, -187500.02235174447, -187500.02235174447, -169248.5489545523, 0.0, -187500.02235174447, 0.12, -0.004, 0.992, 192.0, 0.0, 0.0, 0.0, 0.0, 0.0, 0.0, 0.0, 0.0, 0.0, 1.709421368899007E9, 0.0, 2024-03-02 15:16:08.899
71.0, 0.0, 0.0, -168005.9037215595, -187500.02235174447, -187500.02235174447, -170054.59756309958, 0.0, -187500.02235174447, 0.12, -0.004, 0.992, 192.0, 0.0, 0.0, 0.0, 0.0, 0.0, 0.0, 0.0, 0.0, 0.0, 1.7094213688990133E9, 0.0, 2024-03-02 15:16:08.899
72.0, 0.0, 0.0, -168293.79419014385, -187500.02235174447, -187500.02235174447, -170282.76417049934, 0.0, -187500.02235174447, 0.12, -0.004, 0.992, 192.0, 0.0, 0.0, 0.0, 0.0, 0.0, 0.0, 0.0, 0.0, 0.0, 1.7094213688990188E9, 0.0, 2024-03-02 15:16:08.899
73.0, 0.0, 0.0, -167578.98540246315, -187500.02235174447, -187500.02235174447, -169518.1109926833, 0.0, -187500.02235174447, 0.12, -0.004, 0.992, 192.0, 0.0, 0.0, 0.0, 0.0, 0.0, 0.0, 0.0, 0.0, 0.0, 1.7094213688990245E9, 0.0, 2024-03-02 15:16:08.899
74.0, 0.0, 0.0, -167150.03307462134, -187500.02235174447, -187500.02235174447, -169148.30138067025, 0.0, -187500.02235174447, 0.12, -0.004, 0.992, 192.0, 0.0, 0.0, 0.0, 0.0, 0.0, 0.0, 0.0, 0.0, 0.0, 1.7094213688990307E9, 0.0, 2024-03-02 15:16:08.899
75.0, 0.0, 0.0, -167794.2550533122, -187500.02235174447, -187500.02235174447, -169847.5310024656, 0.0, -187500.02235174447, 0.12, -0.004, 0.992, 192.0, 0.0, 0.0, 0.0, 0.0, 0.0, 0.0, 0.0, 0.0, 0.0, 1.7094213688990371E9, 0.0, 2024-03-02 15:16:08.899
76.0, 0.0, 0.0, -168327.34415857127, -187500.02235174447, -187500.02235174447, -170339.87287758267, 0.0, -187500.02235174447, 0.12, -0.004, 0.992, 192.0, 0.0, 0.0, 0.0, 0.0, 0.0, 0.0, 0.0, 0.0, 0.0, 1.7094213688990424E9, 0.0, 2024-03-02 15:16:08.899
77.0, 0.0, 0.0, -167734.66530259434, -187500.02235174447, -187500.02235174447, -169691.42641918975, 0.0, -187500.02235174447, 0.11800000000000001, -0.008, 0.99, 192.0, 3.0, 176.0, 255.0, 192.0, 30.0, 240.0, 0.0, 0.0, 0.0, 1.709421368899048E9, 0.0, 2024-03-02 15:16:08.899
78.0, 0.0, 0.0, -167194.2671768984, -187500.02235174447, -187500.02235174447, -169193.3401457477, 0.0, -187500.02235174447, 0.11800000000000001, -0.008, 0.99, 192.0, 0.0, 0.0, 0.0, 0.0, 0.0, 0.0, 0.0, 0.0, 0.0, 1.7094213688990536E9, 0.0, 2024-03-02 15:16:08.899
79.0, 0.0, 0.0, -167779.83817813854, -187500.02235174447, -187500.02235174447, -169839.30556050607, 0.0, -187500.02235174447, 0.11800000000000001, -0.008, 0.99, 192.0, 0.0, 0.0, 0.0, 0.0, 0.0, 0.0, 0.0, 0.0, 0.0, 1.709421368899059E9, 0.0, 2024-03-02 15:16:08.899
80.0, 0.0, 0.0, -168470.7082475076, -187500.02235174447, -187500.02235174447, -170504.78404817393, 0.0, -187500.02235174447, 0.11800000000000001, -0.008, 0.99, 192.0, 0.0, 0.0, 0.0, 0.0, 0.0, 0.0, 0.0, 0.0, 0.0, 1.7094213688990643E9, 0.0, 2024-03-02 15:16:08.899
81.0, 0.0, 0.0, -168026.98141658085, -187500.02235174447, -187500.02235174447, -169979.69686742986, 0.0, -187500.02235174447, 0.11800000000000001, -0.008, 0.99, 192.0, 0.0, 0.0, 0.0, 0.0, 0.0, 0.0, 0.0, 0.0, 0.0, 1.7094213688990705E9, 0.0, 2024-03-02 15:16:08.899
82.0, 0.0, 0.0, -167305.95884394157, -187500.02235174447, -187500.02235174447, -169273.69466706453, 0.0, -187500.02235174447, 0.11800000000000001, -0.008, 0.99, 192.0, 0.0, 0.0, 0.0, 0.0, 0.0, 0.0, 0.0, 0.0, 0.0, 1.7094213688990757E9, 0.0, 2024-03-02 15:16:08.899
83.0, 0.0, 0.0, -167628.15924026482, -187500.02235174447, -187500.02235174447, -169657.2506019176, 0.0, -187500.02235174447, 0.11800000000000001, -0.008, 0.99, 192.0, 0.0, 0.0, 0.0, 0.0, 0.0, 0.0, 0.0, 0.0, 0.0, 1.7094213688990815E9, 0.0, 2024-03-02 15:16:08.899
84.0, 0.0, 0.0, -168447.68595071865, -187500.02235174447, -187500.02235174447, -170464.61796338775, 0.0, -187500.02235174447, 0.11800000000000001, -0.008, 0.99, 192.0, 0.0, 0.0, 0.0, 0.0, 0.0, 0.0, 0.0, 0.0, 0.0, 1.7094213688990867E9, 0.0, 2024-03-02 15:16:08.899
85.0, 0.0, 0.0, -168216.2559886284, -187500.02235174447, -187500.02235174447, -170169.44082611095, 0.0, -187500.02235174447, 0.11800000000000001, -0.008, 0.99, 192.0, 0.0, 0.0, 0.0, 0.0, 0.0, 0.0, 0.0, 0.0, 0.0, 1.7094213688990924E9, 0.0, 2024-03-02 15:16:08.899
86.0, 0.0, 0.0, -167479.69895359266, -187500.02235174447, -187500.02235174447, -169440.17045976766, 0.0, -187500.02235174447, 0.11800000000000001, -0.008, 0.99, 192.0, 0.0, 0.0, 0.0, 0.0, 0.0, 0.0, 0.0, 0.0, 0.0, 1.7094213688990989E9, 0.0, 2024-03-02 15:16:08.899
87.0, 0.0, 0.0, -167600.1078009734, -187500.02235174447, -187500.02235174447, -169630.02617717104, 0.0, -187500.02235174447, 0.11800000000000001, -0.008, 0.99, 192.0, 3.0, 176.0, 255.0, 192.0, 30.0, 240.0, 0.0, 0.0, 0.0, 1.7094213688991044E9, 0.0, 2024-03-02 15:16:08.899
88.0, 0.0, 0.0, -168441.85214541582, -187500.02235174447, -187500.02235174447, -170484.4886642085, 0.0, -187500.02235174447, 0.11800000000000001, -0.008, 0.99, 192.0, 0.0, 0.0, 0.0, 0.0, 0.0, 0.0, 0.0, 0.0, 0.0, 1.7094213688991103E9, 0.0, 2024-03-02 15:16:08.899
89.0, 0.0, 0.0, -168417.46639221508, -187500.02235174447, -187500.02235174447, -170384.17403509308, 0.0, -187500.02235174447, 0.11800000000000001, -0.008, 0.99, 192.0, 0.0, 0.0, 0.0, 0.0, 0.0, 0.0, 0.0, 0.0, 0.0, 1.7094213688991163E9, 0.0, 2024-03-02 15:16:08.899
90.0, 0.0, 0.0, -167660.21164181372, -187500.02235174447, -187500.02235174447, -169607.40621178225, 0.0, -187500.02235174447, 0.11800000000000001, -0.008, 0.99, 192.0, 0.0, 0.0, 0.0, 0.0, 0.0, 0.0, 0.0, 0.0, 0.0, 1.7094213688991215E9, 0.0, 2024-03-02 15:16:08.899
91.0, 0.0, 0.0, -167574.58210880545, -187500.02235174447, -187500.02235174447, -169586.21675803862, 0.0, -187500.02235174447, 0.11800000000000001, -0.008, 0.99, 192.0, 0.0, 0.0, 0.0, 0.0, 0.0, 0.0, 0.0, 0.0, 0.0, 1.7094213688991272E9, 0.0, 2024-03-02 15:16:08.899
92.0, 0.0, 0.0, -168396.746325105, -187500.02235174447, -187500.02235174447, -170432.85613451674, 0.0, -187500.02235174447, 0.11800000000000001, -0.008, 0.99, 192.0, 0.0, 0.0, 0.0, 0.0, 0.0, 0.0, 0.0, 0.0, 0.0, 1.7094213688991327E9, 0.0, 2024-03-02 15:16:08.899
93.0, 0.0, 0.0, -168572.60985047935, -187500.02235174447, -187500.02235174447, -170540.1445079022, 0.0, -187500.02235174447, 0.11800000000000001, -0.008, 0.99, 192.0, 0.0, 0.0, 0.0, 0.0, 0.0, 0.0, 0.0, 0.0, 0.0, 1.7094213688991382E9, 0.0, 2024-03-02 15:16:08.899
94.0, 0.0, 0.0, -167813.70107098832, -187500.02235174447, -187500.02235174447, -169749.29508558454, 0.0, -187500.02235174447, 0.11800000000000001, -0.008, 0.99, 192.0, 0.0, 0.0, 0.0, 0.0, 0.0, 0.0, 0.0, 0.0, 0.0, 1.709421368899144E9, 0.0, 2024-03-02 15:16:08.899
95.0, 0.0, 0.0, -167462.3316481509, -187500.02235174447, -187500.02235174447, -169462.99159085652, 0.0, -187500.02235174447, 0.11800000000000001, -0.008, 0.99, 192.0, 0.0, 0.0, 0.0, 0.0, 0.0, 0.0, 0.0, 0.0, 0.0, 1.7094213688991497E9, 0.0, 2024-03-02 15:16:08.899
96.0, 0.0, 0.0, -168199.91686343157, -187500.02235174447, -187500.02235174447, -170251.29291430628, 0.0, -187500.02235174447, 0.11800000000000001, -0.008, 0.99, 192.0, 0.0, 0.0, 0.0, 0.0, 0.0, 0.0, 0.0, 0.0, 0.0, 1.709421368899155E9, 0.0, 2024-03-02 15:16:08.899
97.0, 0.0, 0.0, -168632.87015353088, -187500.02235174447, -187500.02235174447, -170631.33962527988, 0.0, -187500.02235174447, 0.116, -0.01, 0.992, 192.0, 3.0, 160.0, 255.0, 176.0, 31.0, 0.0, 0.0, 0.0, 0.0, 1.7094213688991604E9, 0.0, 2024-03-02 15:16:08.899
98.0, 0.0, 0.0, -167916.45204024937, -187500.02235174447, -187500.02235174447, -169867.35699979748, 0.0, -187500.02235174447, 0.116, -0.01, 0.992, 192.0, 0.0, 0.0, 0.0, 0.0, 0.0, 0.0, 0.0, 0.0, 0.0, 1.709421368899166E9, 0.0, 2024-03-02 15:16:08.899
99.0, 0.0, 0.0, -167425.16069712173, -187500.02235174447, -187500.02235174447, -169434.76133760947, 0.0, -187500.02235174447, 0.116, -0.01, 0.992, 192.0, 0.0, 0.0, 0.0, 0.0, 0.0, 0.0, 0.0, 0.0, 0.0, 1.7094213688991716E9, 0.0, 2024-03-02 15:16:08.899
100.0, 0.0, 0.0, -168022.1087362896, -187500.02235174447, -187500.02235174447, -170079.407999445, 0.0, -187500.02235174447, 0.116, -0.01, 0.992, 192.0, 0.0, 0.0, 0.0, 0.0, 0.0, 0.0, 0.0, 0.0, 0.0, 1.7094213688991773E9, 0.0, 2024-03-02 15:16:08.899
101.0, 0.0, 0.0, -168592.54760653348, -187500.02235174447, -187500.02235174447, -170596.49325567405, 0.0, -187500.02235174447, 0.116, -0.01, 0.992, 192.0, 0.0, 0.0, 0.0, 0.0, 0.0, 0.0, 0.0, 0.0, 0.0, 1.7094213688991828E9, 0.0, 2024-03-02 15:16:08.899
102.0, 0.0, 0.0, -168025.08151830215, -187500.02235174447, -187500.02235174447, -169967.38105623497, 0.0, -187500.02235174447, 0.116, -0.01, 0.992, 192.0, 0.0, 0.0, 0.0, 0.0, 0.0, 0.0, 0.0, 0.0, 0.0, 1.7094213688991883E9, 0.0, 2024-03-02 15:16:08.899
103.0, 0.0, 0.0, -167427.82055471189, -187500.02235174447, -187500.02235174447, -169408.94507276357, 0.0, -187500.02235174447, 0.116, -0.01, 0.992, 192.0, 0.0, 0.0, 0.0, 0.0, 0.0, 0.0, 0.0, 0.0, 0.0, 1.7094213688991935E9, 0.0, 2024-03-02 15:16:08.899
104.0, 0.0, 0.0, -167870.45215016033, -187500.02235174447, -187500.02235174447, -169909.87001775147, 0.0, -187500.02235174447, 0.116, -0.01, 0.992, 192.0, 0.0, 0.0, 0.0, 0.0, 0.0, 0.0, 0.0, 0.0, 0.0, 1.7094213688991992E9, 0.0, 2024-03-02 15:16:08.899
105.0, 0.0, 0.0, -168559.3329142729, -187500.02235174447, -187500.02235174447, -170572.0180954955, 0.0, -187500.02235174447, 0.116, -0.01, 0.992, 192.0, 0.0, 0.0, 0.0, 0.0, 0.0, 0.0, 0.0, 0.0, 0.0, 1.7094213688992045E9, 0.0, 2024-03-02 15:16:08.899
106.0, 0.0, 0.0, -168169.51849097235, -187500.02235174447, -187500.02235174447, -170109.47109573736, 0.0, -187500.02235174447, 0.116, -0.01, 0.992, 192.0, 0.0, 0.0, 0.0, 0.0, 0.0, 0.0, 0.0, 0.0, 0.0, 1.70942136889921E9, 0.0, 2024-03-02 15:16:08.899
107.0, 0.0, 0.0, -167456.1178631923, -187500.02235174447, -187500.02235174447, -169408.94507276357, 0.0, -187500.02235174447, 0.11800000000000001, -0.006, 0.994, 192.0, 3.0, 176.0, 255.0, 208.0, 31.0, 16.0, 0.0, 0.0, 0.0, 1.709421368899217E9, 0.0, 2024-03-02 15:16:08.899
108.0, 0.0, 0.0, -167710.99480521618, -187500.02235174447, -187500.02235174447, -169734.6099894774, 0.0, -187500.02235174447, 0.11800000000000001, -0.006, 0.994, 192.0, 0.0, 0.0, 0.0, 0.0, 0.0, 0.0, 0.0, 0.0, 0.0, 1.7094213688992224E9, 0.0, 2024-03-02 15:16:08.899
109.0, 0.0, 0.0, -168512.86363755033, -187500.02235174447, -187500.02235174447, -170536.03178692245, 0.0, -187500.02235174447, 0.11800000000000001, -0.006, 0.994, 192.0, 0.0, 0.0, 0.0, 0.0, 0.0, 0.0, 0.0, 0.0, 0.0, 1.709421368899228E9, 0.0, 2024-03-02 15:16:08.899
110.0, 0.0, 0.0, -168336.4860220535, -187500.02235174447, -187500.02235174447, -170287.63685079062, 0.0, -187500.02235174447, 0.11800000000000001, -0.006, 0.994, 192.0, 0.0, 0.0, 0.0, 0.0, 0.0, 0.0, 0.0, 0.0, 0.0, 1.7094213688992333E9, 0.0, 2024-03-02 15:16:08.899
111.0, 0.0, 0.0, -167606.94743477672, -187500.02235174447, -187500.02235174447, -169560.8698798263, 0.0, -187500.02235174447, 0.11800000000000001, -0.006, 0.994, 192.0, 0.0, 0.0, 0.0, 0.0, 0.0, 0.0, 0.0, 0.0, 0.0, 1.7094213688992388E9, 0.0, 2024-03-02 15:16:08.899
112.0, 0.0, 0.0, -167619.95615004972, -187500.02235174447, -187500.02235174447, -169648.4440146022, 0.0, -187500.02235174447, 0.11800000000000001, -0.006, 0.994, 192.0, 0.0, 0.0, 0.0, 0.0, 0.0, 0.0, 0.0, 0.0, 0.0, 1.7094213688992443E9, 0.0, 2024-03-02 15:16:08.899
113.0, 0.0, 0.0, -168402.17779900765, -187500.02235174447, -187500.02235174447, -170443.47321313302, 0.0, -187500.02235174447, 0.11800000000000001, -0.006, 0.994, 192.0, 0.0, 0.0, 0.0, 0.0, 0.0, 0.0, 0.0, 0.0, 0.0, 1.70942136889925E9, 0.0, 2024-03-02 15:16:08.899
114.0, 0.0, 0.0, -168429.24576154302, -187500.02235174447, -187500.02235174447, -170395.30520383184, 0.0, -187500.02235174447, 0.11800000000000001, -0.006, 0.994, 192.0, 0.0, 0.0, 0.0, 0.0, 0.0, 0.0, 0.0, 0.0, 0.0, 1.7094213688992555E9, 0.0, 2024-03-02 15:16:08.899
115.0, 0.0, 0.0, -167671.6333832304, -187500.02235174447, -187500.02235174447, -169614.91639791924, 0.0, -187500.02235174447, 0.11800000000000001, -0.006, 0.994, 192.0, 0.0, 0.0, 0.0, 0.0, 0.0, 0.0, 0.0, 0.0, 0.0, 1.7094213688992612E9, 0.0, 2024-03-02 15:16:08.899
116.0, 0.0, 0.0, -167496.97685205663, -187500.02235174447, -187500.02235174447, -169509.751440257, 0.0, -187500.02235174447, 0.11800000000000001, -0.006, 0.994, 192.0, 0.0, 0.0, 0.0, 0.0, 0.0, 0.0, 0.0, 0.0, 0.0, 1.7094213688992665E9, 0.0, 2024-03-02 15:16:08.899
117.0, 0.0, 0.0, -168274.70580037902, -187500.02235174447, -187500.02235174447, -170317.47642963845, 0.0, -187500.02235174447, 0.122, -0.002, 0.996, 192.0, 3.0, 208.0, 255.0, 240.0, 31.0, 32.0, 0.0, 0.0, 0.0, 1.709421368899272E9, 0.0, 2024-03-02 15:16:08.899
118.0, 0.0, 0.0, -168473.9716021981, -187500.02235174447, -187500.02235174447, -170457.7336260955, 0.0, -187500.02235174447, 0.122, -0.002, 0.996, 192.0, 0.0, 0.0, 0.0, 0.0, 0.0, 0.0, 0.0, 0.0, 0.0, 1.7094213688992777E9, 0.0, 2024-03-02 15:16:08.899
119.0, 0.0, 0.0, -167746.73524460022, -187500.02235174447, -187500.02235174447, -169692.85693083488, 0.0, -187500.02235174447, 0.122, -0.002, 0.996, 192.0, 0.0, 0.0, 0.0, 0.0, 0.0, 0.0, 0.0, 0.0, 0.0, 1.709421368899283E9, 0.0, 2024-03-02 15:16:08.899
120.0, 0.0, 0.0, -167414.99065339455, -187500.02235174447, -187500.02235174447, -169420.54562813588, 0.0, -187500.02235174447, 0.122, -0.002, 0.996, 192.0, 0.0, 0.0, 0.0, 0.0, 0.0, 0.0, 0.0, 0.0, 0.0, 1.709421369377319E9, 0.0, 2024-03-02 15:16:09.377
121.0, 0.0, 0.0, -168104.54196984076, -187500.02235174447, -187500.02235174447, -170157.50499457182, 0.0, -187500.02235174447, 0.122, -0.002, 0.996, 192.0, 0.0, 0.0, 0.0, 0.0, 0.0, 0.0, 0.0, 0.0, 0.0, 1.7094213693773384E9, 0.0, 2024-03-02 15:16:09.377
122.0, 0.0, 0.0, -168511.18725671616, -187500.02235174447, -187500.02235174447, -170509.5449697429, 0.0, -187500.02235174447, 0.122, -0.002, 0.996, 192.0, 0.0, 0.0, 0.0, 0.0, 0.0, 0.0, 0.0, 0.0, 0.0, 1.7094213693773458E9, 0.0, 2024-03-02 15:16:09.377
123.0, 0.0, 0.0, -167888.84763584705, -187500.02235174447, -187500.02235174447, -169836.37748198243, 0.0, -187500.02235174447, 0.122, -0.002, 0.996, 192.0, 0.0, 0.0, 0.0, 0.0, 0.0, 0.0, 0.0, 0.0, 0.0, 1.7094213693773513E9, 0.0, 2024-03-02 15:16:09.377
124.0, 0.0, 0.0, -167455.96140098112, -187500.02235174447, -187500.02235174447, -169441.51156443497, 0.0, -187500.02235174447, 0.122, -0.002, 0.996, 192.0, 0.0, 0.0, 0.0, 0.0, 0.0, 0.0, 0.0, 0.0, 0.0, 1.7094213693773565E9, 0.0, 2024-03-02 15:16:09.377
125.0, 0.0, 0.0, -167995.01842200977, -187500.02235174447, -187500.02235174447, -170024.04272842917, 0.0, -187500.02235174447, 0.122, -0.002, 0.996, 192.0, 0.0, 0.0, 0.0, 0.0, 0.0, 0.0, 0.0, 0.0, 0.0, 1.7094213693773625E9, 0.0, 2024-03-02 15:16:09.377
126.0, 0.0, 0.0, -168555.55546945997, -187500.02235174447, -187500.02235174447, -170560.99868547902, 0.0, -187500.02235174447, 0.122, -0.002, 0.996, 192.0, 0.0, 0.0, 0.0, 0.0, 0.0, 0.0, 0.0, 0.0, 0.0, 1.7094213693773687E9, 0.0, 2024-03-02 15:16:09.377
127.0, 0.0, 0.0, -168068.7121234789, -187500.02235174447, -187500.02235174447, -170016.15256263645, 0.0, -187500.02235174447, 0.12, 0.0, 0.994, 192.0, 3.0, 192.0, 0.0, 0.0, 31.0, 16.0, 0.0, 0.0, 0.0, 1.7094213693773737E9, 0.0, 2024-03-02 15:16:09.377
128.0, 0.0, 0.0, -167443.13149966378, -187500.02235174447, -187500.02235174447, -169421.4396979141, 0.0, -187500.02235174447, 0.12, 0.0, 0.994, 192.0, 0.0, 0.0, 0.0, 0.0, 0.0, 0.0, 0.0, 0.0, 0.0, 1.709421369377379E9, 0.0, 2024-03-02 15:16:09.377
129.0, 0.0, 0.0, -167758.91694532835, -187500.02235174447, -187500.02235174447, -169795.4737896292, 0.0, -187500.02235174447, 0.12, 0.0, 0.994, 192.0, 0.0, 0.0, 0.0, 0.0, 0.0, 0.0, 0.0, 0.0, 0.0, 1.7094213693773842E9, 0.0, 2024-03-02 15:16:09.377
130.0, 0.0, 0.0, -168419.0086625825, -187500.02235174447, -187500.02235174447, -170437.3264834078, 0.0, -187500.02235174447, 0.12, 0.0, 0.994, 192.0, 0.0, 0.0, 0.0, 0.0, 0.0, 0.0, 0.0, 0.0, 0.0, 1.7094213693773892E9, 0.0, 2024-03-02 15:16:09.377
131.0, 0.0, 0.0, -168086.682926021, -187500.02235174447, -187500.02235174447, -170034.05630994515, 0.0, -187500.02235174447, 0.12, 0.0, 0.994, 192.0, 0.0, 0.0, 0.0, 0.0, 0.0, 0.0, 0.0, 0.0, 0.0, 1.7094213693773947E9, 0.0, 2024-03-02 15:16:09.377
132.0, 0.0, 0.0, -167375.8080453644, -187500.02235174447, -187500.02235174447, -169337.53124922886, 0.0, -187500.02235174447, 0.12, 0.0, 0.994, 192.0, 0.0, 0.0, 0.0, 0.0, 0.0, 0.0, 0.0, 0.0, 0.0, 1.7094213693773997E9, 0.0, 2024-03-02 15:16:09.377
133.0, 0.0, 0.0, -167558.44414930872, -187500.02235174447, -187500.02235174447, -169587.8707871283, 0.0, -187500.02235174447, 0.12, 0.0, 0.994, 192.0, 0.0, 0.0, 0.0, 0.0, 0.0, 0.0, 0.0, 0.0, 0.0, 1.7094213693774047E9, 0.0, 2024-03-02 15:16:09.377
134.0, 0.0, 0.0, -168312.0779171083, -187500.02235174447, -187500.02235174447, -170344.32087472928, 0.0, -187500.02235174447, 0.12, 0.0, 0.994, 192.0, 0.0, 0.0, 0.0, 0.0, 0.0, 0.0, 0.0, 0.0, 0.0, 1.70942136937741E9, 0.0, 2024-03-02 15:16:09.377
135.0, 0.0, 0.0, -168158.92376410053, -187500.02235174447, -187500.02235174447, -170125.11731685608, 0.0, -187500.02235174447, 0.12, 0.0, 0.994, 192.0, 0.0, 0.0, 0.0, 0.0, 0.0, 0.0, 0.0, 0.0, 0.0, 1.7094213693774147E9, 0.0, 2024-03-02 15:16:09.377
136.0, 0.0, 0.0, -167418.67869122967, -187500.02235174447, -187500.02235174447, -169382.01122069493, 0.0, -187500.02235174447, 0.12, 0.0, 0.994, 192.0, 0.0, 0.0, 0.0, 0.0, 0.0, 0.0, 0.0, 0.0, 0.0, 1.7094213693774204E9, 0.0, 2024-03-02 15:16:09.377
137.0, 0.0, 0.0, -167400.08203984285, -187500.02235174447, -187500.02235174447, -169429.53102940693, 0.0, -187500.02235174447, 0.12, 0.0, 0.994, 192.0, 0.0, 0.0, 0.0, 0.0, 0.0, 0.0, 0.0, 0.0, 0.0, 1.7094213693774252E9, 0.0, 2024-03-02 15:16:09.377
138.0, 0.0, 0.0, -168162.45533972446, -187500.02235174447, -187500.02235174447, -170208.51167541882, 0.0, -187500.02235174447, 0.11800000000000001, -0.004, 0.992, 192.0, 3.0, 176.0, 255.0, 224.0, 31.0, 0.0, 0.0, 0.0, 0.0, 1.7094213693774304E9, 0.0, 2024-03-02 15:16:09.377
139.0, 0.0, 0.0, -168244.35213140873, -187500.02235174447, -187500.02235174447, -170220.60396916914, 0.0, -187500.02235174447, 0.11800000000000001, -0.004, 0.992, 192.0, 0.0, 0.0, 0.0, 0.0, 0.0, 0.0, 0.0, 0.0, 0.0, 1.7094213693774357E9, 0.0, 2024-03-02 15:16:09.377
140.0, 0.0, 0.0, -167550.26341083806, -187500.02235174447, -187500.02235174447, -169497.3015185954, 0.0, -187500.02235174447, 0.11800000000000001, -0.004, 0.992, 192.0, 0.0, 0.0, 0.0, 0.0, 0.0, 0.0, 0.0, 0.0, 0.0, 1.7094213693774407E9, 0.0, 2024-03-02 15:16:09.377
141.0, 0.0, 0.0, -167317.3358818693, -187500.02235174447, -187500.02235174447, -169321.2144757765, 0.0, -187500.02235174447, 0.11800000000000001, -0.004, 0.992, 192.0, 0.0, 0.0, 0.0, 0.0, 0.0, 0.0, 0.0, 0.0, 0.0, 1.7094213693774457E9, 0.0, 2024-03-02 15:16:09.377
142.0, 0.0, 0.0, -168035.65389342952, -187500.02235174447, -187500.02235174447, -170081.48671167932, 0.0, -187500.02235174447, 0.11800000000000001, -0.004, 0.992, 192.0, 0.0, 0.0, 0.0, 0.0, 0.0, 0.0, 0.0, 0.0, 0.0, 1.7094213693774507E9, 0.0, 2024-03-02 15:16:09.377
143.0, 0.0, 0.0, -168304.8806553937, -187500.02235174447, -187500.02235174447, -170290.31906012524, 0.0, -187500.02235174447, 0.11800000000000001, -0.004, 0.992, 192.0, 0.0, 0.0, 0.0, 0.0, 0.0, 0.0, 0.0, 0.0, 0.0, 1.7094213693774557E9, 0.0, 2024-03-02 15:16:09.377
144.0, 0.0, 0.0, -167636.78701362456, -187500.02235174447, -187500.02235174447, -169575.4655689556, 0.0, -187500.02235174447, 0.11800000000000001, -0.004, 0.992, 192.0, 0.0, 0.0, 0.0, 0.0, 0.0, 0.0, 0.0, 0.0, 0.0, 1.7094213693774607E9, 0.0, 2024-03-02 15:16:09.377
145.0, 0.0, 0.0, -167242.34577922177, -187500.02235174447, -187500.02235174447, -169230.55580026578, 0.0, -187500.02235174447, 0.11800000000000001, -0.004, 0.992, 192.0, 0.0, 0.0, 0.0, 0.0, 0.0, 0.0, 0.0, 0.0, 0.0, 1.7094213693774655E9, 0.0, 2024-03-02 15:16:09.377
146.0, 0.0, 0.0, -167900.29172900817, -187500.02235174447, -187500.02235174447, -169930.14304997242, 0.0, -187500.02235174447, 0.11800000000000001, -0.004, 0.992, 192.0, 0.0, 0.0, 0.0, 0.0, 0.0, 0.0, 0.0, 0.0, 0.0, 1.7094213693774712E9, 0.0, 2024-03-02 15:16:09.377
147.0, 0.0, 0.0, -168398.17683675015, -187500.02235174447, -187500.02235174447, -170379.88250015766, 0.0, -187500.02235174447, 0.11800000000000001, -0.004, 0.992, 192.0, 0.0, 0.0, 0.0, 0.0, 0.0, 0.0, 0.0, 0.0, 0.0, 1.709421369377476E9, 0.0, 2024-03-02 15:16:09.377
148.0, 0.0, 0.0, -167834.24232414275, -187500.02235174447, -187500.02235174447, -169763.57785029148, 0.0, -187500.02235174447, 0.122, -0.002, 0.994, 192.0, 3.0, 208.0, 255.0, 240.0, 31.0, 16.0, 0.0, 0.0, 0.0, 1.7094213693774812E9, 0.0, 2024-03-02 15:16:09.377
149.0, 0.0, 0.0, -167297.24166360399, -187500.02235174447, -187500.02235174447, -169265.46922510496, 0.0, -187500.02235174447, 0.122, -0.002, 0.994, 192.0, 0.0, 0.0, 0.0, 0.0, 0.0, 0.0, 0.0, 0.0, 0.0, 1.709421369377486E9, 0.0, 2024-03-02 15:16:09.377
150.0, 0.0, 0.0, -167744.7906428326, -187500.02235174447, -187500.02235174447, -169772.04916144005, 0.0, -187500.02235174447, 0.122, -0.002, 0.994, 192.0, 0.0, 0.0, 0.0, 0.0, 0.0, 0.0, 0.0, 0.0, 0.0, 1.7094213693774912E9, 0.0, 2024-03-02 15:16:09.377
151.0, 0.0, 0.0, -168361.9446589881, -187500.02235174447, -187500.02235174447, -170361.55406970432, 0.0, -187500.02235174447, 0.122, -0.002, 0.994, 192.0, 0.0, 0.0, 0.0, 0.0, 0.0, 0.0, 0.0, 0.0, 0.0, 1.709421369377496E9, 0.0, 2024-03-02 15:16:09.377
152.0, 0.0, 0.0, -167963.56951756115, -187500.02235174447, -187500.02235174447, -169897.53185481214, 0.0, -187500.02235174447, 0.122, -0.002, 0.994, 192.0, 0.0, 0.0, 0.0, 0.0, 0.0, 0.0, 0.0, 0.0, 0.0, 1.7094213693775015E9, 0.0, 2024-03-02 15:16:09.377
153.0, 0.0, 0.0, -167280.03082037342, -187500.02235174447, -187500.02235174447, -169242.22341087143, 0.0, -187500.02235174447, 0.122, -0.002, 0.994, 192.0, 0.0, 0.0, 0.0, 0.0, 0.0, 0.0, 0.0, 0.0, 0.0, 1.7094213693775065E9, 0.0, 2024-03-02 15:16:09.377
154.0, 0.0, 0.0, -167577.4431320957, -187500.02235174447, -187500.02235174447, -169606.40038328175, 0.0, -187500.02235174447, 0.122, -0.002, 0.994, 192.0, 0.0, 0.0, 0.0, 0.0, 0.0, 0.0, 0.0, 0.0, 0.0, 1.7094213693775115E9, 0.0, 2024-03-02 15:16:09.377
155.0, 0.0, 0.0, -168321.48800152398, -187500.02235174447, -187500.02235174447, -170346.3548834747, 0.0, -187500.02235174447, 0.122, -0.002, 0.994, 192.0, 0.0, 0.0, 0.0, 0.0, 0.0, 0.0, 0.0, 0.0, 0.0, 1.7094213693775165E9, 0.0, 2024-03-02 15:16:09.377
156.0, 0.0, 0.0, -168087.2864231213, -187500.02235174447, -187500.02235174447, -170039.91246699245, 0.0, -187500.02235174447, 0.122, -0.002, 0.994, 192.0, 0.0, 0.0, 0.0, 0.0, 0.0, 0.0, 0.0, 0.0, 0.0, 1.7094213693775215E9, 0.0, 2024-03-02 15:16:09.377
157.0, 0.0, 0.0, -167385.48635071353, -187500.02235174447, -187500.02235174447, -169336.79364166185, 0.0, -187500.02235174447, 0.122, -0.002, 0.994, 192.0, 0.0, 0.0, 0.0, 0.0, 0.0, 0.0, 0.0, 0.0, 0.0, 1.7094213693775263E9, 0.0, 2024-03-02 15:16:09.377
158.0, 0.0, 0.0, -167515.05941332097, -187500.02235174447, -187500.02235174447, -169537.57936210386, 0.0, -187500.02235174447, 0.126, -0.006, 0.998, 192.0, 3.0, 240.0, 255.0, 208.0, 31.0, 48.0, 0.0, 0.0, 0.0, 1.7094213693775315E9, 0.0, 2024-03-02 15:16:09.377
159.0, 0.0, 0.0, -168277.83504460278, -187500.02235174447, -187500.02235174447, -170311.97790050245, 0.0, -187500.02235174447, 0.126, -0.006, 0.998, 192.0, 0.0, 0.0, 0.0, 0.0, 0.0, 0.0, 0.0, 0.0, 0.0, 1.709421369377537E9, 0.0, 2024-03-02 15:16:09.377
160.0, 0.0, 0.0, -168245.96145700951, -187500.02235174447, -187500.02235174447, -170209.11517251912, 0.0, -187500.02235174447, 0.126, -0.006, 0.998, 192.0, 0.0, 0.0, 0.0, 0.0, 0.0, 0.0, 0.0, 0.0, 0.0, 1.709421369377542E9, 0.0, 2024-03-02 15:16:09.377
161.0, 0.0, 0.0, -167498.3850119573, -187500.02235174447, -187500.02235174447, -169457.31424776488, 0.0, -187500.02235174447, 0.126, -0.006, 0.998, 192.0, 0.0, 0.0, 0.0, 0.0, 0.0, 0.0, 0.0, 0.0, 0.0, 1.7094213693775473E9, 0.0, 2024-03-02 15:16:09.377
162.0, 0.0, 0.0, -167432.80499372544, -187500.02235174447, -187500.02235174447, -169459.97410535504, 0.0, -187500.02235174447, 0.126, -0.006, 0.998, 192.0, 0.0, 0.0, 0.0, 0.0, 0.0, 0.0, 0.0, 0.0, 0.0, 1.709421369377552E9, 0.0, 2024-03-02 15:16:09.377
163.0, 0.0, 0.0, -168148.0384645508, -187500.02235174447, -187500.02235174447, -170196.8664165576, 0.0, -187500.02235174447, 0.126, -0.006, 0.998, 192.0, 0.0, 0.0, 0.0, 0.0, 0.0, 0.0, 0.0, 0.0, 0.0, 1.709421369377557E9, 0.0, 2024-03-02 15:16:09.377
164.0, 0.0, 0.0, -168289.99439358644, -187500.02235174447, -187500.02235174447, -170276.6397925186, 0.0, -187500.02235174447, 0.126, -0.006, 0.998, 192.0, 0.0, 0.0, 0.0, 0.0, 0.0, 0.0, 0.0, 0.0, 0.0, 1.709421369377562E9, 0.0, 2024-03-02 15:16:09.377
165.0, 0.0, 0.0, -167617.564513393, -187500.02235174447, -187500.02235174447, -169572.89511834327, 0.0, -187500.02235174447, 0.126, -0.006, 0.998, 192.0, 0.0, 0.0, 0.0, 0.0, 0.0, 0.0, 0.0, 0.0, 0.0, 1.7094213693775668E9, 0.0, 2024-03-02 15:16:09.377
166.0, 0.0, 0.0, -167409.64858646973, -187500.02235174447, -187500.02235174447, -169413.95186352156, 0.0, -187500.02235174447, 0.126, -0.006, 0.998, 192.0, 0.0, 0.0, 0.0, 0.0, 0.0, 0.0, 0.0, 0.0, 0.0, 1.7094213693775723E9, 0.0, 2024-03-02 15:16:09.377
167.0, 0.0, 0.0, -168073.58480377018, -187500.02235174447, -187500.02235174447, -170109.73931667084, 0.0, -187500.02235174447, 0.126, -0.006, 0.998, 192.0, 0.0, 0.0, 0.0, 0.0, 0.0, 0.0, 0.0, 0.0, 0.0, 1.7094213693775773E9, 0.0, 2024-03-02 15:16:09.377
168.0, 0.0, 0.0, -168417.57815093736, -187500.02235174447, -187500.02235174447, -170403.217721369, 0.0, -187500.02235174447, 0.122, -0.004, 0.996, 192.0, 3.0, 208.0, 255.0, 224.0, 31.0, 32.0, 0.0, 0.0, 0.0, 1.709421369377582E9, 0.0, 2024-03-02 15:16:09.377
169.0, 0.0, 0.0, -167767.94705008832, -187500.02235174447, -187500.02235174447, -169709.21840777618, 0.0, -187500.02235174447, 0.122, -0.004, 0.996, 192.0, 0.0, 0.0, 0.0, 0.0, 0.0, 0.0, 0.0, 0.0, 0.0, 1.709421369377587E9, 0.0, 2024-03-02 15:16:09.377
170.0, 0.0, 0.0, -167342.43689089263, -187500.02235174447, -187500.02235174447, -169334.96079861652, 0.0, -187500.02235174447, 0.122, -0.004, 0.996, 192.0, 0.0, 0.0, 0.0, 0.0, 0.0, 0.0, 0.0, 0.0, 0.0, 1.709421369377592E9, 0.0, 2024-03-02 15:16:09.377
171.0, 0.0, 0.0, -167895.62021441702, -187500.02235174447, -187500.02235174447, -169938.79317507663, 0.0, -187500.02235174447, 0.122, -0.004, 0.996, 192.0, 0.0, 0.0, 0.0, 0.0, 0.0, 0.0, 0.0, 0.0, 0.0, 1.709421369377597E9, 0.0, 2024-03-02 15:16:09.377
172.0, 0.0, 0.0, -168450.72578796456, -187500.02235174447, -187500.02235174447, -170448.63646610218, 0.0, -187500.02235174447, 0.122, -0.004, 0.996, 192.0, 0.0, 0.0, 0.0, 0.0, 0.0, 0.0, 0.0, 0.0, 0.0, 1.7094213693776023E9, 0.0, 2024-03-02 15:16:09.377
173.0, 0.0, 0.0, -167899.91174935244, -187500.02235174447, -187500.02235174447, -169835.52811569313, 0.0, -187500.02235174447, 0.122, -0.004, 0.996, 192.0, 0.0, 0.0, 0.0, 0.0, 0.0, 0.0, 0.0, 0.0, 0.0, 1.709421369377607E9, 0.0, 2024-03-02 15:16:09.377
174.0, 0.0, 0.0, -167284.03178263092, -187500.02235174447, -187500.02235174447, -169257.5120040789, 0.0, -187500.02235174447, 0.122, -0.004, 0.996, 192.0, 0.0, 0.0, 0.0, 0.0, 0.0, 0.0, 0.0, 0.0, 0.0, 1.709421369377612E9, 0.0, 2024-03-02 15:16:09.377
175.0, 0.0, 0.0, -167716.64979656338, -187500.02235174447, -187500.02235174447, -169745.98702740515, 0.0, -187500.02235174447, 0.122, -0.004, 0.996, 192.0, 0.0, 0.0, 0.0, 0.0, 0.0, 0.0, 0.0, 0.0, 0.0, 1.709421369377617E9, 0.0, 2024-03-02 15:16:09.377
176.0, 0.0, 0.0, -168339.70467325507, -187500.02235174447, -187500.02235174447, -170359.0059708364, 0.0, -187500.02235174447, 0.122, -0.004, 0.996, 192.0, 0.0, 0.0, 0.0, 0.0, 0.0, 0.0, 0.0, 0.0, 0.0, 1.709421369377622E9, 0.0, 2024-03-02 15:16:09.377
177.0, 0.0, 0.0, -167965.0000292063, -187500.02235174447, -187500.02235174447, -169920.8000207901, 0.0, -187500.02235174447, 0.122, -0.004, 0.996, 192.0, 0.0, 0.0, 0.0, 0.0, 0.0, 0.0, 0.0, 0.0, 0.0, 1.709421369377627E9, 0.0, 2024-03-02 15:16:09.377
178.0, 0.0, 0.0, -167349.12006248476, -187500.02235174447, -187500.02235174447, -169327.0259293349, 0.0, -187500.02235174447, 0.126, -0.008, 0.998, 192.0, 3.0, 240.0, 255.0, 192.0, 31.0, 48.0, 0.0, 0.0, 0.0, 1.709421369377632E9, 0.0, 2024-03-02 15:16:09.377
179.0, 0.0, 0.0, -167565.59670753442, -187500.02235174447, -187500.02235174447, -169608.47909551612, 0.0, -187500.02235174447, 0.126, -0.008, 0.998, 192.0, 0.0, 0.0, 0.0, 0.0, 0.0, 0.0, 0.0, 0.0, 0.0, 1.7094213693776371E9, 0.0, 2024-03-02 15:16:09.377
180.0, 0.0, 0.0, -168279.6678876481, -187500.02235174447, -187500.02235174447, -170321.16446747357, 0.0, -187500.02235174447, 0.126, -0.008, 0.998, 192.0, 0.0, 0.0, 0.0, 0.0, 0.0, 0.0, 0.0, 0.0, 0.0, 1.7094213693776424E9, 0.0, 2024-03-02 15:16:09.377
181.0, 0.0, 0.0, -168135.09680451118, -187500.02235174447, -187500.02235174447, -170103.05614507868, 0.0, -187500.02235174447, 0.126, -0.008, 0.998, 192.0, 0.0, 0.0, 0.0, 0.0, 0.0, 0.0, 0.0, 0.0, 0.0, 1.7094213693776472E9, 0.0, 2024-03-02 15:16:09.377
182.0, 0.0, 0.0, -167415.8176679394, -187500.02235174447, -187500.02235174447, -169381.76535150592, 0.0, -187500.02235174447, 0.126, -0.008, 0.998, 192.0, 0.0, 0.0, 0.0, 0.0, 0.0, 0.0, 0.0, 0.0, 0.0, 1.7094213693776522E9, 0.0, 2024-03-02 15:16:09.377
183.0, 0.0, 0.0, -167439.4658135731, -187500.02235174447, -187500.02235174447, -169468.17719557014, 0.0, -187500.02235174447, 0.126, -0.008, 0.998, 192.0, 0.0, 0.0, 0.0, 0.0, 0.0, 0.0, 0.0, 0.0, 0.0, 1.7094213693776572E9, 0.0, 2024-03-02 15:16:09.377
184.0, 0.0, 0.0, -168233.42212837006, -187500.02235174447, -187500.02235174447, -170274.40461807308, 0.0, -187500.02235174447, 0.126, -0.008, 0.998, 192.0, 0.0, 0.0, 0.0, 0.0, 0.0, 0.0, 0.0, 0.0, 0.0, 1.7094213693776624E9, 0.0, 2024-03-02 15:16:09.377
185.0, 0.0, 0.0, -168296.34228901175, -187500.02235174447, -187500.02235174447, -170270.82833896021, 0.0, -187500.02235174447, 0.126, -0.008, 0.998, 192.0, 0.0, 0.0, 0.0, 0.0, 0.0, 0.0, 0.0, 0.0, 0.0, 1.7094213693776677E9, 0.0, 2024-03-02 15:16:09.377
186.0, 0.0, 0.0, -167546.7541869586, -187500.02235174447, -187500.02235174447, -169501.3471843418, 0.0, -187500.02235174447, 0.126, -0.008, 0.998, 192.0, 0.0, 0.0, 0.0, 0.0, 0.0, 0.0, 0.0, 0.0, 0.0, 1.709421369377673E9, 0.0, 2024-03-02 15:16:09.377
187.0, 0.0, 0.0, -167439.28699961747, -187500.02235174447, -187500.02235174447, -169456.3531227533, 0.0, -187500.02235174447, 0.126, -0.008, 0.998, 192.0, 0.0, 0.0, 0.0, 0.0, 0.0, 0.0, 0.0, 0.0, 0.0, 1.7094213693776777E9, 0.0, 2024-03-02 15:16:09.377
188.0, 0.0, 0.0, -168160.3542757457, -187500.02235174447, -187500.02235174447, -170206.8352945847, 0.0, -187500.02235174447, 0.126, -0.012, 0.996, 192.0, 3.0, 240.0, 255.0, 160.0, 31.0, 32.0, 0.0, 0.0, 0.0, 1.7094213693776827E9, 0.0, 2024-03-02 15:16:09.377
189.0, 0.0, 0.0, -168370.48302537002, -187500.02235174447, -187500.02235174447, -170356.9049068576, 0.0, -187500.02235174447, 0.126, -0.012, 0.996, 192.0, 0.0, 0.0, 0.0, 0.0, 0.0, 0.0, 0.0, 0.0, 0.0, 1.7094213693776877E9, 0.0, 2024-03-02 15:16:09.377
190.0, 0.0, 0.0, -167659.16110982432, -187500.02235174447, -187500.02235174447, -169618.67149098773, 0.0, -187500.02235174447, 0.126, -0.012, 0.996, 192.0, 0.0, 0.0, 0.0, 0.0, 0.0, 0.0, 0.0, 0.0, 0.0, 1.7094213693776925E9, 0.0, 2024-03-02 15:16:09.377
191.0, 0.0, 0.0, -167354.14920498722, -187500.02235174447, -187500.02235174447, -169378.25612762646, 0.0, -187500.02235174447, 0.126, -0.012, 0.996, 192.0, 0.0, 0.0, 0.0, 0.0, 0.0, 0.0, 0.0, 0.0, 0.0, 1.7094213693776977E9, 0.0, 2024-03-02 15:16:09.377
192.0, 0.0, 0.0, -168003.22151222487, -187500.02235174447, -187500.02235174447, -170062.59948761459, 0.0, -187500.02235174447, 0.126, -0.012, 0.996, 192.0, 0.0, 0.0, 0.0, 0.0, 0.0, 0.0, 0.0, 0.0, 0.0, 1.7094213693777027E9, 0.0, 2024-03-02 15:16:09.377
193.0, 0.0, 0.0, -168451.73161646505, -187500.02235174447, -187500.02235174447, -170456.16900398364, 0.0, -187500.02235174447, 0.126, -0.012, 0.996, 192.0, 0.0, 0.0, 0.0, 0.0, 0.0, 0.0, 0.0, 0.0, 0.0, 1.7094213693777075E9, 0.0, 2024-03-02 15:16:09.377
194.0, 0.0, 0.0, -167834.35408286503, -187500.02235174447, -187500.02235174447, -169783.00151622316, 0.0, -187500.02235174447, 0.126, -0.012, 0.996, 192.0, 0.0, 0.0, 0.0, 0.0, 0.0, 0.0, 0.0, 0.0, 0.0, 1.7094213693777127E9, 0.0, 2024-03-02 15:16:09.377
195.0, 0.0, 0.0, -167339.5535158579, -187500.02235174447, -187500.02235174447, -169332.03272009286, 0.0, -187500.02235174447, 0.126, -0.012, 0.996, 192.0, 0.0, 0.0, 0.0, 0.0, 0.0, 0.0, 0.0, 0.0, 0.0, 1.7094213693777177E9, 0.0, 2024-03-02 15:16:09.377
196.0, 0.0, 0.0, -167876.2859554632, -187500.02235174447, -187500.02235174447, -169923.1469539579, 0.0, -187500.02235174447, 0.126, -0.012, 0.996, 192.0, 0.0, 0.0, 0.0, 0.0, 0.0, 0.0, 0.0, 0.0, 0.0, 1.7094213693777227E9, 0.0, 2024-03-02 15:16:09.377
197.0, 0.0, 0.0, -168436.33126453534, -187500.02235174447, -187500.02235174447, -170449.26231494694, 0.0, -187500.02235174447, 0.126, -0.012, 0.996, 192.0, 0.0, 0.0, 0.0, 0.0, 0.0, 0.0, 0.0, 0.0, 0.0, 1.7094213693777275E9, 0.0, 2024-03-02 15:16:09.377
198.0, 0.0, 0.0, -167982.83672128164, -187500.02235174447, -187500.02235174447, -169939.24020996573, 0.0, -187500.02235174447, 0.122, -0.012, 0.998, 192.0, 3.0, 208.0, 255.0, 160.0, 31.0, 48.0, 0.0, 0.0, 0.0, 1.709421369377733E9, 0.0, 2024-03-02 15:16:09.377
199.0, 0.0, 0.0, -167372.81291160738, -187500.02235174447, -187500.02235174447, -169361.44761579606, 0.0, -187500.02235174447, 0.122, -0.012, 0.998, 192.0, 0.0, 0.0, 0.0, 0.0, 0.0, 0.0, 0.0, 0.0, 0.0, 1.709421369377738E9, 0.0, 2024-03-02 15:16:09.377
200.0, 0.0, 0.0, -167713.56525582855, -187500.02235174447, -187500.02235174447, -169761.56619329052, 0.0, -187500.02235174447, 0.122, -0.012, 0.998, 192.0, 0.0, 0.0, 0.0, 0.0, 0.0, 0.0, 0.0, 0.0, 0.0, 1.7094213693777428E9, 0.0, 2024-03-02 15:16:09.377
201.0, 0.0, 0.0, -168399.02620303945, -187500.02235174447, -187500.02235174447, -170433.4819833615, 0.0, -187500.02235174447, 0.122, -0.012, 0.998, 192.0, 0.0, 0.0, 0.0, 0.0, 0.0, 0.0, 0.0, 0.0, 0.0, 1.709421369377748E9, 0.0, 2024-03-02 15:16:09.377
202.0, 0.0, 0.0, -168135.3426737002, -187500.02235174447, -187500.02235174447, -170101.24565377782, 0.0, -187500.02235174447, 0.122, -0.012, 0.998, 192.0, 0.0, 0.0, 0.0, 0.0, 0.0, 0.0, 0.0, 0.0, 0.0, 1.7094213693777528E9, 0.0, 2024-03-02 15:16:09.377
203.0, 0.0, 0.0, -167431.59799952485, -187500.02235174447, -187500.02235174447, -169408.47568613003, 0.0, -187500.02235174447, 0.122, -0.012, 0.998, 192.0, 0.0, 0.0, 0.0, 0.0, 0.0, 0.0, 0.0, 0.0, 0.0, 1.7094213693777578E9, 0.0, 2024-03-02 15:16:09.377
204.0, 0.0, 0.0, -167610.18843772274, -187500.02235174447, -187500.02235174447, -169645.06890118946, 0.0, -187500.02235174447, 0.122, -0.012, 0.998, 192.0, 0.0, 0.0, 0.0, 0.0, 0.0, 0.0, 0.0, 0.0, 0.0, 1.7094213693777628E9, 0.0, 2024-03-02 15:16:09.377
205.0, 0.0, 0.0, -168353.47334783952, -187500.02235174447, -187500.02235174447, -170380.77656993587, 0.0, -187500.02235174447, 0.122, -0.012, 0.998, 192.0, 0.0, 0.0, 0.0, 0.0, 0.0, 0.0, 0.0, 0.0, 0.0, 1.7094213693777685E9, 0.0, 2024-03-02 15:16:09.377
206.0, 0.0, 0.0, -168274.0575997898, -187500.02235174447, -187500.02235174447, -170233.07624257522, 0.0, -187500.02235174447, 0.122, -0.012, 0.998, 192.0, 0.0, 0.0, 0.0, 0.0, 0.0, 0.0, 0.0, 0.0, 0.0, 1.7094213693777733E9, 0.0, 2024-03-02 15:16:09.377
207.0, 0.0, 0.0, -167538.7969659325, -187500.02235174447, -187500.02235174447, -169488.13730336874, 0.0, -187500.02235174447, 0.122, -0.012, 0.998, 192.0, 0.0, 0.0, 0.0, 0.0, 0.0, 0.0, 0.0, 0.0, 0.0, 1.7094213693777783E9, 0.0, 2024-03-02 15:16:09.377
208.0, 0.0, 0.0, -167548.6987887262, -187500.02235174447, -187500.02235174447, -169558.43353968067, 0.0, -187500.02235174447, 0.122, -0.012, 0.998, 192.0, 3.0, 208.0, 255.0, 160.0, 31.0, 48.0, 0.0, 0.0, 0.0, 1.7094213693777833E9, 0.0, 2024-03-02 15:16:09.377
209.0, 0.0, 0.0, -168326.6736062376, -187500.02235174447, -187500.02235174447, -170359.0730260698, 0.0, -187500.02235174447, 0.122, -0.012, 0.998, 192.0, 0.0, 0.0, 0.0, 0.0, 0.0, 0.0, 0.0, 0.0, 0.0, 1.7094213693777883E9, 0.0, 2024-03-02 15:16:09.377
210.0, 0.0, 0.0, -168379.64724059668, -187500.02235174447, -187500.02235174447, -170344.454985196, 0.0, -187500.02235174447, 0.122, -0.012, 0.998, 192.0, 0.0, 0.0, 0.0, 0.0, 0.0, 0.0, 0.0, 0.0, 0.0, 1.7094213693777933E9, 0.0, 2024-03-02 15:16:09.377
211.0, 0.0, 0.0, -167665.6654674608, -187500.02235174447, -187500.02235174447, -169600.8347989124, 0.0, -187500.02235174447, 0.122, -0.012, 0.998, 192.0, 0.0, 0.0, 0.0, 0.0, 0.0, 0.0, 0.0, 0.0, 0.0, 1.709421369377798E9, 0.0, 2024-03-02 15:16:09.377
212.0, 0.0, 0.0, -167516.2440557771, -187500.02235174447, -187500.02235174447, -169504.8117047324, 0.0, -187500.02235174447, 0.122, -0.012, 0.998, 192.0, 0.0, 0.0, 0.0, 0.0, 0.0, 0.0, 0.0, 0.0, 0.0, 1.709421369377804E9, 0.0, 2024-03-02 15:16:09.377
213.0, 0.0, 0.0, -168169.67495318354, -187500.02235174447, -187500.02235174447, -170190.83144555468, 0.0, -187500.02235174447, 0.122, -0.012, 0.998, 192.0, 0.0, 0.0, 0.0, 0.0, 0.0, 0.0, 0.0, 0.0, 0.0, 1.709421369377809E9, 0.0, 2024-03-02 15:16:09.377
214.0, 0.0, 0.0, -168496.7256780536, -187500.02235174447, -187500.02235174447, -170463.05334127587, 0.0, -187500.02235174447, 0.122, -0.012, 0.998, 192.0, 0.0, 0.0, 0.0, 0.0, 0.0, 0.0, 0.0, 0.0, 0.0, 1.7094213693778143E9, 0.0, 2024-03-02 15:16:09.377
215.0, 0.0, 0.0, -167801.0499836266, -187500.02235174447, -187500.02235174447, -169728.6197219634, 0.0, -187500.02235174447, 0.122, -0.012, 0.998, 192.0, 0.0, 0.0, 0.0, 0.0, 0.0, 0.0, 0.0, 0.0, 0.0, 1.7094213693778193E9, 0.0, 2024-03-02 15:16:09.377
216.0, 0.0, 0.0, -167402.8089526664, -187500.02235174447, -187500.02235174447, -169385.6769067856, 0.0, -187500.02235174447, 0.122, -0.012, 0.998, 192.0, 0.0, 0.0, 0.0, 0.0, 0.0, 0.0, 0.0, 0.0, 0.0, 1.7094213693778243E9, 0.0, 2024-03-02 15:16:09.377
217.0, 0.0, 0.0, -167999.0417360117, -187500.02235174447, -187500.02235174447, -170034.43628960088, 0.0, -187500.02235174447, 0.122, -0.012, 0.998, 192.0, 0.0, 0.0, 0.0, 0.0, 0.0, 0.0, 0.0, 0.0, 0.0, 1.7094213693778293E9, 0.0, 2024-03-02 15:16:09.377
218.0, 0.0, 0.0, -168456.24666884504, -187500.02235174447, -187500.02235174447, -170451.31867543684, 0.0, -187500.02235174447, 0.128, -0.012, 1.0, 192.0, 4.0, 0.0, 255.0, 160.0, 31.0, 64.0, 0.0, 0.0, 0.0, 1.7094213693778348E9, 0.0, 2024-03-02 15:16:09.377
219.0, 0.0, 0.0, -167871.70384784983, -187500.02235174447, -187500.02235174447, -169821.26770273063, 0.0, -187500.02235174447, 0.128, -0.012, 1.0, 192.0, 0.0, 0.0, 0.0, 0.0, 0.0, 0.0, 0.0, 0.0, 0.0, 1.7094213693778398E9, 0.0, 2024-03-02 15:16:09.377
220.0, 0.0, 0.0, -167302.40491657317, -187500.02235174447, -187500.02235174447, -169302.1037342672, 0.0, -187500.02235174447, 0.128, -0.012, 1.0, 192.0, 0.0, 0.0, 0.0, 0.0, 0.0, 0.0, 0.0, 0.0, 0.0, 1.7094213693778448E9, 0.0, 2024-03-02 15:16:09.377
221.0, 0.0, 0.0, -167745.12591899943, -187500.02235174447, -187500.02235174447, -169807.1861037238, 0.0, -187500.02235174447, 0.128, -0.012, 1.0, 192.0, 0.0, 0.0, 0.0, 0.0, 0.0, 0.0, 0.0, 0.0, 0.0, 1.7094213693778496E9, 0.0, 2024-03-02 15:16:09.377
222.0, 0.0, 0.0, -168344.75616750197, -187500.02235174447, -187500.02235174447, -170385.9174711606, 0.0, -187500.02235174447, 0.128, -0.012, 1.0, 192.0, 0.0, 0.0, 0.0, 0.0, 0.0, 0.0, 0.0, 0.0, 0.0, 1.7094213693778548E9, 0.0, 2024-03-02 15:16:09.377
223.0, 0.0, 0.0, -167934.95928465837, -187500.02235174447, -187500.02235174447, -169899.0517734351, 0.0, -187500.02235174447, 0.128, -0.012, 1.0, 192.0, 0.0, 0.0, 0.0, 0.0, 0.0, 0.0, 0.0, 0.0, 0.0, 1.7094213693778596E9, 0.0, 2024-03-02 15:16:09.377
224.0, 0.0, 0.0, -167268.56437546783, -187500.02235174447, -187500.02235174447, -169254.98625695542, 0.0, -187500.02235174447, 0.128, -0.012, 1.0, 192.0, 0.0, 0.0, 0.0, 0.0, 0.0, 0.0, 0.0, 0.0, 0.0, 1.7094213693778648E9, 0.0, 2024-03-02 15:16:09.377
225.0, 0.0, 0.0, -167515.79702088799, -187500.02235174447, -187500.02235174447, -169567.6201066518, 0.0, -187500.02235174447, 0.128, -0.012, 1.0, 192.0, 0.0, 0.0, 0.0, 0.0, 0.0, 0.0, 0.0, 0.0, 0.0, 1.70942136937787E9, 0.0, 2024-03-02 15:16:09.377
226.0, 0.0, 0.0, -168165.71869441494, -187500.02235174447, -187500.02235174447, -170213.25024524334, 0.0, -187500.02235174447, 0.128, -0.012, 1.0, 192.0, 0.0, 0.0, 0.0, 0.0, 0.0, 0.0, 0.0, 0.0, 0.0, 1.709421369377875E9, 0.0, 2024-03-02 15:16:09.377
227.0, 0.0, 0.0, -167941.0836626391, -187500.02235174447, -187500.02235174447, -169918.47543936677, 0.0, -187500.02235174447, 0.128, -0.012, 1.0, 192.0, 0.0, 0.0, 0.0, 0.0, 0.0, 0.0, 0.0, 0.0, 0.0, 1.7094213693778803E9, 0.0, 2024-03-02 15:16:09.377
228.0, 0.0, 0.0, -167217.55769462083, -187500.02235174447, -187500.02235174447, -169193.40720098105, 0.0, -187500.02235174447, 0.12, -0.01, 0.998, 192.0, 3.0, 192.0, 255.0, 176.0, 31.0, 48.0, 0.0, 0.0, 0.0, 1.709421369377885E9, 0.0, 2024-03-02 15:16:09.377
229.0, 0.0, 0.0, -167275.35930578224, -187500.02235174447, -187500.02235174447, -169310.53034192687, 0.0, -187500.02235174447, 0.12, -0.01, 0.998, 192.0, 0.0, 0.0, 0.0, 0.0, 0.0, 0.0, 0.0, 0.0, 0.0, 1.7094213693778903E9, 0.0, 2024-03-02 15:16:09.377
230.0, 0.0, 0.0, -167899.50941795224, -187500.02235174447, -187500.02235174447, -169939.1731547324, 0.0, -187500.02235174447, 0.12, -0.01, 0.998, 192.0, 0.0, 0.0, 0.0, 0.0, 0.0, 0.0, 0.0, 0.0, 0.0, 1.709421369377895E9, 0.0, 2024-03-02 15:16:09.377
231.0, 0.0, 0.0, -167766.91886984336, -187500.02235174447, -187500.02235174447, -169735.03467262205, 0.0, -187500.02235174447, 0.12, -0.01, 0.998, 192.0, 0.0, 0.0, 0.0, 0.0, 0.0, 0.0, 0.0, 0.0, 0.0, 1.7094213693779008E9, 0.0, 2024-03-02 15:16:09.377
232.0, 0.0, 0.0, -167030.83122144119, -187500.02235174447, -187500.02235174447, -168987.8829107145, 0.0, -187500.02235174447, 0.12, -0.01, 0.998, 192.0, 0.0, 0.0, 0.0, 0.0, 0.0, 0.0, 0.0, 0.0, 0.0, 1.7094213693779058E9, 0.0, 2024-03-02 15:16:09.377
233.0, 0.0, 0.0, -166939.03260696324, -187500.02235174447, -187500.02235174447, -168954.06472135364, 0.0, -187500.02235174447, 0.12, -0.01, 0.998, 192.0, 0.0, 0.0, 0.0, 0.0, 0.0, 0.0, 0.0, 0.0, 0.0, 1.7094213693779109E9, 0.0, 2024-03-02 15:16:09.377
234.0, 0.0, 0.0, -167588.6637078123, -187500.02235174447, -187500.02235174447, -169615.96692990864, 0.0, -187500.02235174447, 0.12, -0.01, 0.998, 192.0, 0.0, 0.0, 0.0, 0.0, 0.0, 0.0, 0.0, 0.0, 0.0, 1.7094213693779159E9, 0.0, 2024-03-02 15:16:09.377
235.0, 0.0, 0.0, -167700.82476148903, -187500.02235174447, -187500.02235174447, -169664.76078805458, 0.0, -187500.02235174447, 0.12, -0.01, 0.998, 192.0, 0.0, 0.0, 0.0, 0.0, 0.0, 0.0, 0.0, 0.0, 0.0, 1.7094213693779209E9, 0.0, 2024-03-02 15:16:09.377
236.0, 0.0, 0.0, -167029.0207301403, -187500.02235174447, -187500.02235174447, -168971.92376517341, 0.0, -187500.02235174447, 0.12, -0.01, 0.998, 192.0, 0.0, 0.0, 0.0, 0.0, 0.0, 0.0, 0.0, 0.0, 0.0, 1.7094213693779259E9, 0.0, 2024-03-02 15:16:09.377
237.0, 0.0, 0.0, -166777.5189015292, -187500.02235174447, -187500.02235174447, -168785.86784432744, 0.0, -187500.02235174447, 0.12, -0.01, 0.998, 192.0, 0.0, 0.0, 0.0, 0.0, 0.0, 0.0, 0.0, 0.0, 0.0, 1.7094213693779309E9, 0.0, 2024-03-02 15:16:09.377
238.0, 0.0, 0.0, -167377.08209479836, -187500.02235174447, -187500.02235174447, -169424.5912938823, 0.0, -187500.02235174447, 0.116, -0.002, 0.99, 192.0, 3.0, 160.0, 255.0, 240.0, 30.0, 240.0, 0.0, 0.0, 0.0, 1.709421369377936E9, 0.0, 2024-03-02 15:16:09.377
239.0, 0.0, 0.0, -167672.81802568652, -187500.02235174447, -187500.02235174447, -169671.1086834799, 0.0, -187500.02235174447, 0.116, -0.002, 0.99, 192.0, 0.0, 0.0, 0.0, 0.0, 0.0, 0.0, 0.0, 0.0, 0.0, 1.7094213693779411E9, 0.0, 2024-03-02 15:16:09.377
240.0, 0.0, 0.0, -167122.58513243022, -187500.02235174447, -187500.02235174447, -169076.99931585783, 0.0, -187500.02235174447, 0.116, -0.002, 0.99, 192.0, 0.0, 0.0, 0.0, 0.0, 0.0, 0.0, 0.0, 0.0, 0.0, 1.7094213698566751E9, 0.0, 2024-03-02 15:16:09.856
241.0, 0.0, 0.0, -166772.2215380933, -187500.02235174447, -187500.02235174447, -168776.9942017787, 0.0, -187500.02235174447, 0.116, -0.002, 0.99, 192.0, 0.0, 0.0, 0.0, 0.0, 0.0, 0.0, 0.0, 0.0, 0.0, 1.7094213698566968E9, 0.0, 2024-03-02 15:16:09.856
242.0, 0.0, 0.0, -167353.43394916464, -187500.02235174447, -187500.02235174447, -169416.23174145602, 0.0, -187500.02235174447, 0.116, -0.002, 0.99, 192.0, 0.0, 0.0, 0.0, 0.0, 0.0, 0.0, 0.0, 0.0, 0.0, 1.709421369856704E9, 0.0, 2024-03-02 15:16:09.856
243.0, 0.0, 0.0, -167899.39765922996, -187500.02235174447, -187500.02235174447, -169928.2655034382, 0.0, -187500.02235174447, 0.116, -0.002, 0.99, 192.0, 0.0, 0.0, 0.0, 0.0, 0.0, 0.0, 0.0, 0.0, 0.0, 1.70942136985671E9, 0.0, 2024-03-02 15:16:09.856
244.0, 0.0, 0.0, -167483.40934317224, -187500.02235174447, -187500.02235174447, -169457.82833788733, 0.0, -187500.02235174447, 0.116, -0.002, 0.99, 192.0, 0.0, 0.0, 0.0, 0.0, 0.0, 0.0, 0.0, 0.0, 0.0, 1.7094213698567164E9, 0.0, 2024-03-02 15:16:09.856
245.0, 0.0, 0.0, -166958.14334847254, -187500.02235174447, -187500.02235174447, -168954.2211835648, 0.0, -187500.02235174447, 0.116, -0.002, 0.99, 192.0, 0.0, 0.0, 0.0, 0.0, 0.0, 0.0, 0.0, 0.0, 0.0, 1.7094213698567216E9, 0.0, 2024-03-02 15:16:09.856
246.0, 0.0, 0.0, -167328.13177444122, -187500.02235174447, -187500.02235174447, -169384.9392992186, 0.0, -187500.02235174447, 0.116, -0.002, 0.99, 192.0, 0.0, 0.0, 0.0, 0.0, 0.0, 0.0, 0.0, 0.0, 0.0, 1.7094213698567264E9, 0.0, 2024-03-02 15:16:09.856
247.0, 0.0, 0.0, -167928.65609272197, -187500.02235174447, -187500.02235174447, -169965.05647481163, 0.0, -187500.02235174447, 0.116, -0.002, 0.99, 192.0, 0.0, 0.0, 0.0, 0.0, 0.0, 0.0, 0.0, 0.0, 0.0, 1.7094213698567312E9, 0.0, 2024-03-02 15:16:09.856
248.0, 0.0, 0.0, -167623.19715299574, -187500.02235174447, -187500.02235174447, -169594.79982790945, 0.0, -187500.02235174447, 0.124, -0.004, 0.998, 192.0, 3.0, 224.0, 255.0, 224.0, 31.0, 48.0, 0.0, 0.0, 0.0, 1.709421369856737E9, 0.0, 2024-03-02 15:16:09.856
249.0, 0.0, 0.0, -167006.0207850958, -187500.02235174447, -187500.02235174447, -168989.17931189292, 0.0, -187500.02235174447, 0.124, -0.004, 0.998, 192.0, 0.0, 0.0, 0.0, 0.0, 0.0, 0.0, 0.0, 0.0, 0.0, 1.709421369856742E9, 0.0, 2024-03-02 15:16:09.856
250.0, 0.0, 0.0, -167242.9269245776, -187500.02235174447, -187500.02235174447, -169289.47499864997, 0.0, -187500.02235174447, 0.124, -0.004, 0.998, 192.0, 0.0, 0.0, 0.0, 0.0, 0.0, 0.0, 0.0, 0.0, 0.0, 1.709421369856747E9, 0.0, 2024-03-02 15:16:09.856
251.0, 0.0, 0.0, -167926.7338426988, -187500.02235174447, -187500.02235174447, -169972.25373652624, 0.0, -187500.02235174447, 0.124, -0.004, 0.998, 192.0, 0.0, 0.0, 0.0, 0.0, 0.0, 0.0, 0.0, 0.0, 0.0, 1.709421369856752E9, 0.0, 2024-03-02 15:16:09.856
252.0, 0.0, 0.0, -167781.6039659505, -187500.02235174447, -187500.02235174447, -169755.95590543223, 0.0, -187500.02235174447, 0.124, -0.004, 0.998, 192.0, 0.0, 0.0, 0.0, 0.0, 0.0, 0.0, 0.0, 0.0, 0.0, 1.7094213698567567E9, 0.0, 2024-03-02 15:16:09.856
253.0, 0.0, 0.0, -167115.65609164909, -187500.02235174447, -187500.02235174447, -169085.06829560618, 0.0, -187500.02235174447, 0.124, -0.004, 0.998, 192.0, 0.0, 0.0, 0.0, 0.0, 0.0, 0.0, 0.0, 0.0, 0.0, 1.7094213698567617E9, 0.0, 2024-03-02 15:16:09.856
254.0, 0.0, 0.0, -167120.66288240708, -187500.02235174447, -187500.02235174447, -169145.08272946868, 0.0, -187500.02235174447, 0.124, -0.004, 0.998, 192.0, 0.0, 0.0, 0.0, 0.0, 0.0, 0.0, 0.0, 0.0, 0.0, 1.709421369856767E9, 0.0, 2024-03-02 15:16:09.856
255.0, 0.0, 0.0, -167769.26580301116, -187500.02235174447, -187500.02235174447, -169803.65452809984, 0.0, -187500.02235174447, 0.124, -0.004, 0.998, 192.0, 0.0, 0.0, 0.0, 0.0, 0.0, 0.0, 0.0, 0.0, 0.0, 1.7094213698567717E9, 0.0, 2024-03-02 15:16:09.856
0.0, 0.0, 0.0, -167797.0490213691, -187500.02235174447, -187500.02235174447, -169771.4680160842, 0.0, -187500.02235174447, 0.124, -0.004, 0.998, 192.0, 0.0, 0.0, 0.0, 0.0, 0.0, 0.0, 0.0, 0.0, 0.0, 1.7094213698567767E9, 0.0, 2024-03-02 15:16:09.856
1.0, 0.0, 0.0, -167121.53460044082, -187500.02235174447, -187500.02235174447, -169083.43661826095, 0.0, -187500.02235174447, 0.124, -0.004, 0.998, 192.0, 0.0, 0.0, 0.0, 0.0, 0.0, 0.0, 0.0, 0.0, 0.0, 1.709421369856782E9, 0.0, 2024-03-02 15:16:09.856
2.0, 0.0, 0.0, -166999.7175931594, -187500.02235174447, -187500.02235174447, -169011.15107669248, 0.0, -187500.02235174447, 0.122, -0.014, 0.992, 192.0, 3.0, 208.0, 255.0, 144.0, 31.0, 0.0, 0.0, 0.0, 0.0, 1.7094213698567867E9, 0.0, 2024-03-02 15:16:09.856
3.0, 0.0, 0.0, -167630.52852517707, -187500.02235174447, -187500.02235174447, -169665.43134038823, 0.0, -187500.02235174447, 0.122, -0.014, 0.992, 192.0, 0.0, 0.0, 0.0, 0.0, 0.0, 0.0, 0.0, 0.0, 0.0, 1.7094213698567917E9, 0.0, 2024-03-02 15:16:09.856
4.0, 0.0, 0.0, -167841.64075155745, -187500.02235174447, -187500.02235174447, -169820.21717074123, 0.0, -187500.02235174447, 0.122, -0.014, 0.992, 192.0, 0.0, 0.0, 0.0, 0.0, 0.0, 0.0, 0.0, 0.0, 0.0, 1.7094213698567972E9, 0.0, 2024-03-02 15:16:09.856
5.0, 0.0, 0.0, -167242.65870364412, -187500.02235174447, -187500.02235174447, -169191.8872823581, 0.0, -187500.02235174447, 0.122, -0.014, 0.992, 192.0, 0.0, 0.0, 0.0, 0.0, 0.0, 0.0, 0.0, 0.0, 0.0, 1.7094213698568022E9, 0.0, 2024-03-02 15:16:09.856
6.0, 0.0, 0.0, -166962.9489735304, -187500.02235174447, -187500.02235174447, -168974.3824570635, 0.0, -187500.02235174447, 0.122, -0.014, 0.992, 192.0, 0.0, 0.0, 0.0, 0.0, 0.0, 0.0, 0.0, 0.0, 0.0, 1.709421369856807E9, 0.0, 2024-03-02 15:16:09.856
7.0, 0.0, 0.0, -167583.1428269318, -187500.02235174447, -187500.02235174447, -169643.280761633, 0.0, -187500.02235174447, 0.122, -0.014, 0.992, 192.0, 0.0, 0.0, 0.0, 0.0, 0.0, 0.0, 0.0, 0.0, 0.0, 1.7094213698568118E9, 0.0, 2024-03-02 15:16:09.856
8.0, 0.0, 0.0, -168013.5033146743, -187500.02235174447, -187500.02235174447, -170030.27886513222, 0.0, -187500.02235174447, 0.122, -0.014, 0.992, 192.0, 0.0, 0.0, 0.0, 0.0, 0.0, 0.0, 0.0, 0.0, 0.0, 1.7094213698568168E9, 0.0, 2024-03-02 15:16:09.856
9.0, 0.0, 0.0, -167544.60841949086, -187500.02235174447, -187500.02235174447, -169510.77962050197, 0.0, -187500.02235174447, 0.122, -0.014, 0.992, 192.0, 0.0, 0.0, 0.0, 0.0, 0.0, 0.0, 0.0, 0.0, 0.0, 1.7094213698568215E9, 0.0, 2024-03-02 15:16:09.856
10.0, 0.0, 0.0, -167136.82319364825, -187500.02235174447, -187500.02235174447, -169142.98166548988, 0.0, -187500.02235174447, 0.122, -0.014, 0.992, 192.0, 0.0, 0.0, 0.0, 0.0, 0.0, 0.0, 0.0, 0.0, 0.0, 1.7094213698568263E9, 0.0, 2024-03-02 15:16:09.856
11.0, 0.0, 0.0, -167598.18555095023, -187500.02235174447, -187500.02235174447, -169654.97072398313, 0.0, -187500.02235174447, 0.122, -0.014, 0.992, 192.0, 0.0, 0.0, 0.0, 0.0, 0.0, 0.0, 0.0, 0.0, 0.0, 1.7094213698568313E9, 0.0, 2024-03-02 15:16:09.856
12.0, 0.0, 0.0, -168170.65842993956, -187500.02235174447, -187500.02235174447, -170194.98887002337, 0.0, -187500.02235174447, 0.11800000000000001, -0.012, 0.994, 192.0, 3.0, 176.0, 255.0, 160.0, 31.0, 16.0, 0.0, 0.0, 0.0, 1.709421369856836E9, 0.0, 2024-03-02 15:16:09.856
13.0, 0.0, 0.0, -167801.854646427, -187500.02235174447, -187500.02235174447, -169772.33973411797, 0.0, -187500.02235174447, 0.11800000000000001, -0.012, 0.994, 192.0, 0.0, 0.0, 0.0, 0.0, 0.0, 0.0, 0.0, 0.0, 0.0, 1.7094213698568408E9, 0.0, 2024-03-02 15:16:09.856
14.0, 0.0, 0.0, -167331.1492599427, -187500.02235174447, -187500.02235174447, -169323.3602432442, 0.0, -187500.02235174447, 0.11800000000000001, -0.012, 0.994, 192.0, 0.0, 0.0, 0.0, 0.0, 0.0, 0.0, 0.0, 0.0, 0.0, 1.7094213698568456E9, 0.0, 2024-03-02 15:16:09.856
15.0, 0.0, 0.0, -167677.8918716779, -187500.02235174447, -187500.02235174447, -169730.18434407524, 0.0, -187500.02235174447, 0.11800000000000001, -0.012, 0.994, 192.0, 0.0, 0.0, 0.0, 0.0, 0.0, 0.0, 0.0, 0.0, 0.0, 1.7094213698568509E9, 0.0, 2024-03-02 15:16:09.856
16.0, 0.0, 0.0, -168272.24710848895, -187500.02235174447, -187500.02235174447, -170306.59113008872, 0.0, -187500.02235174447, 0.11800000000000001, -0.012, 0.994, 192.0, 0.0, 0.0, 0.0, 0.0, 0.0, 0.0, 0.0, 0.0, 0.0, 1.7094213698568556E9, 0.0, 2024-03-02 15:16:09.856
17.0, 0.0, 0.0, -168078.79276022827, -187500.02235174447, -187500.02235174447, -170039.66659780344, 0.0, -187500.02235174447, 0.11800000000000001, -0.012, 0.994, 192.0, 0.0, 0.0, 0.0, 0.0, 0.0, 0.0, 0.0, 0.0, 0.0, 1.7094213698568604E9, 0.0, 2024-03-02 15:16:09.856
18.0, 0.0, 0.0, -167472.792264556, -187500.02235174447, -187500.02235174447, -169441.01982605696, 0.0, -187500.02235174447, 0.11800000000000001, -0.012, 0.994, 192.0, 0.0, 0.0, 0.0, 0.0, 0.0, 0.0, 0.0, 0.0, 0.0, 1.7094213698568652E9, 0.0, 2024-03-02 15:16:09.856
19.0, 0.0, 0.0, -167594.6539753263, -187500.02235174447, -187500.02235174447, -169622.73950847858, 0.0, -187500.02235174447, 0.11800000000000001, -0.012, 0.994, 192.0, 0.0, 0.0, 0.0, 0.0, 0.0, 0.0, 0.0, 0.0, 0.0, 1.70942136985687E9, 0.0, 2024-03-02 15:16:09.856
20.0, 0.0, 0.0, -168286.95455634053, -187500.02235174447, -187500.02235174447, -170322.32675818526, 0.0, -187500.02235174447, 0.11800000000000001, -0.012, 0.994, 192.0, 0.0, 0.0, 0.0, 0.0, 0.0, 0.0, 0.0, 0.0, 0.0, 1.7094213698568747E9, 0.0, 2024-03-02 15:16:09.856
21.0, 0.0, 0.0, -168242.04990172983, -187500.02235174447, -187500.02235174447, -170214.36783246612, 0.0, -187500.02235174447, 0.11800000000000001, -0.012, 0.994, 192.0, 0.0, 0.0, 0.0, 0.0, 0.0, 0.0, 0.0, 0.0, 0.0, 1.70942136985688E9, 0.0, 2024-03-02 15:16:09.856
22.0, 0.0, 0.0, -167590.9659374912, -187500.02235174447, -187500.02235174447, -169551.19157447715, 0.0, -187500.02235174447, 0.122, -0.01, 0.992, 192.0, 3.0, 208.0, 255.0, 176.0, 31.0, 0.0, 0.0, 0.0, 0.0, 1.7094213698568847E9, 0.0, 2024-03-02 15:16:09.856
23.0, 0.0, 0.0, -167554.35378007338, -187500.02235174447, -187500.02235174447, -169571.53166193148, 0.0, -187500.02235174447, 0.122, -0.01, 0.992, 192.0, 0.0, 0.0, 0.0, 0.0, 0.0, 0.0, 0.0, 0.0, 0.0, 1.7094213698568892E9, 0.0, 2024-03-02 15:16:09.856
24.0, 0.0, 0.0, -168215.4066223391, -187500.02235174447, -187500.02235174447, -170252.79048118478, 0.0, -187500.02235174447, 0.122, -0.01, 0.992, 192.0, 0.0, 0.0, 0.0, 0.0, 0.0, 0.0, 0.0, 0.0, 0.0, 1.709421369856894E9, 0.0, 2024-03-02 15:16:09.856
25.0, 0.0, 0.0, -168382.15063597567, -187500.02235174447, -187500.02235174447, -170353.52979344485, 0.0, -187500.02235174447, 0.122, -0.01, 0.992, 192.0, 0.0, 0.0, 0.0, 0.0, 0.0, 0.0, 0.0, 0.0, 0.0, 1.7094213698568988E9, 0.0, 2024-03-02 15:16:09.856
26.0, 0.0, 0.0, -167791.63989921092, -187500.02235174447, -187500.02235174447, -169735.39230053333, 0.0, -187500.02235174447, 0.122, -0.01, 0.992, 192.0, 0.0, 0.0, 0.0, 0.0, 0.0, 0.0, 0.0, 0.0, 0.0, 1.7094213698569036E9, 0.0, 2024-03-02 15:16:09.856
27.0, 0.0, 0.0, -167638.2175252697, -187500.02235174447, -187500.02235174447, -169649.0922151914, 0.0, -187500.02235174447, 0.122, -0.01, 0.992, 192.0, 0.0, 0.0, 0.0, 0.0, 0.0, 0.0, 0.0, 0.0, 0.0, 1.7094213698569083E9, 0.0, 2024-03-02 15:16:09.856
28.0, 0.0, 0.0, -168297.66104193463, -187500.02235174447, -187500.02235174447, -170345.99725556342, 0.0, -187500.02235174447, 0.122, -0.01, 0.992, 192.0, 0.0, 0.0, 0.0, 0.0, 0.0, 0.0, 0.0, 0.0, 0.0, 1.7094213698569133E9, 0.0, 2024-03-02 15:16:09.856
29.0, 0.0, 0.0, -168591.69824024418, -187500.02235174447, -187500.02235174447, -170590.6147468823, 0.0, -187500.02235174447, 0.122, -0.01, 0.992, 192.0, 0.0, 0.0, 0.0, 0.0, 0.0, 0.0, 0.0, 0.0, 0.0, 1.7094213698569183E9, 0.0, 2024-03-02 15:16:09.856
30.0, 0.0, 0.0, -168056.12809135058, -187500.02235174447, -187500.02235174447, -170014.72205099132, 0.0, -187500.02235174447, 0.122, -0.01, 0.992, 192.0, 0.0, 0.0, 0.0, 0.0, 0.0, 0.0, 0.0, 0.0, 0.0, 1.709421369856923E9, 0.0, 2024-03-02 15:16:09.856
31.0, 0.0, 0.0, -167747.31638995605, -187500.02235174447, -187500.02235174447, -169755.2182978652, 0.0, -187500.02235174447, 0.122, -0.01, 0.992, 192.0, 0.0, 0.0, 0.0, 0.0, 0.0, 0.0, 0.0, 0.0, 0.0, 1.709421369856928E9, 0.0, 2024-03-02 15:16:09.856
32.0, 0.0, 0.0, -168310.80386767435, -187500.02235174447, -187500.02235174447, -170353.7533108894, 0.0, -187500.02235174447, 0.126, -0.014, 0.994, 192.0, 3.0, 240.0, 255.0, 144.0, 31.0, 16.0, 0.0, 0.0, 0.0, 1.7094213698569326E9, 0.0, 2024-03-02 15:16:09.856
33.0, 0.0, 0.0, -168737.8786489819, -187500.02235174447, -187500.02235174447, -170740.77376613306, 0.0, -187500.02235174447, 0.126, -0.014, 0.994, 192.0, 0.0, 0.0, 0.0, 0.0, 0.0, 0.0, 0.0, 0.0, 0.0, 1.7094213698569374E9, 0.0, 2024-03-02 15:16:09.856
34.0, 0.0, 0.0, -168312.45789676404, -187500.02235174447, -187500.02235174447, -170259.71952196595, 0.0, -187500.02235174447, 0.126, -0.014, 0.994, 192.0, 0.0, 0.0, 0.0, 0.0, 0.0, 0.0, 0.0, 0.0, 0.0, 1.7094213698569424E9, 0.0, 2024-03-02 15:16:09.856
35.0, 0.0, 0.0, -167858.78453955468, -187500.02235174447, -187500.02235174447, -169840.87018261795, 0.0, -187500.02235174447, 0.126, -0.014, 0.994, 192.0, 0.0, 0.0, 0.0, 0.0, 0.0, 0.0, 0.0, 0.0, 0.0, 1.7094213698569472E9, 0.0, 2024-03-02 15:16:09.856
36.0, 0.0, 0.0, -168300.00797510243, -187500.02235174447, -187500.02235174447, -170327.53471464335, 0.0, -187500.02235174447, 0.126, -0.014, 0.994, 192.0, 0.0, 0.0, 0.0, 0.0, 0.0, 0.0, 0.0, 0.0, 0.0, 1.709421369856952E9, 0.0, 2024-03-02 15:16:09.856
37.0, 0.0, 0.0, -168880.54983384014, -187500.02235174447, -187500.02235174447, -170884.11550332495, 0.0, -187500.02235174447, 0.126, -0.014, 0.994, 192.0, 0.0, 0.0, 0.0, 0.0, 0.0, 0.0, 0.0, 0.0, 0.0, 1.7094213698569567E9, 0.0, 2024-03-02 15:16:09.856
38.0, 0.0, 0.0, -168517.64691086375, -187500.02235174447, -187500.02235174447, -170464.81912908785, 0.0, -187500.02235174447, 0.126, -0.014, 0.994, 192.0, 0.0, 0.0, 0.0, 0.0, 0.0, 0.0, 0.0, 0.0, 0.0, 1.7094213698569615E9, 0.0, 2024-03-02 15:16:09.856
39.0, 0.0, 0.0, -167935.7862992032, -187500.02235174447, -187500.02235174447, -169901.599872303, 0.0, -187500.02235174447, 0.126, -0.014, 0.994, 192.0, 0.0, 0.0, 0.0, 0.0, 0.0, 0.0, 0.0, 0.0, 0.0, 1.7094213698569665E9, 0.0, 2024-03-02 15:16:09.856
40.0, 0.0, 0.0, -168188.20454933698, -187500.02235174447, -187500.02235174447, -170220.6263209136, 0.0, -187500.02235174447, 0.126, -0.014, 0.994, 192.0, 0.0, 0.0, 0.0, 0.0, 0.0, 0.0, 0.0, 0.0, 0.0, 1.7094213698569713E9, 0.0, 2024-03-02 15:16:09.856
41.0, 0.0, 0.0, -168828.8949524039, -187500.02235174447, -187500.02235174447, -170855.14764251086, 0.0, -187500.02235174447, 0.126, -0.014, 0.994, 192.0, 0.0, 0.0, 0.0, 0.0, 0.0, 0.0, 0.0, 0.0, 0.0, 1.7094213698569767E9, 0.0, 2024-03-02 15:16:09.856
42.0, 0.0, 0.0, -168598.82844672544, -187500.02235174447, -187500.02235174447, -170561.1104442013, 0.0, -187500.02235174447, 0.126, -0.014, 0.994, 192.0, 0.0, 0.0, 0.0, 0.0, 0.0, 0.0, 0.0, 0.0, 0.0, 1.7094213698569815E9, 0.0, 2024-03-02 15:16:09.856
43.0, 0.0, 0.0, -167992.8950062865, -187500.02235174447, -187500.02235174447, -169961.03316080966, 0.0, -187500.02235174447, 0.122, -0.014, 1.002, 192.0, 3.0, 208.0, 255.0, 144.0, 31.0, 80.0, 0.0, 0.0, 0.0, 1.7094213698569863E9, 0.0, 2024-03-02 15:16:09.856
44.0, 0.0, 0.0, -168132.10167075417, -187500.02235174447, -187500.02235174447, -170163.18233766346, 0.0, -187500.02235174447, 0.122, -0.014, 1.002, 192.0, 0.0, 0.0, 0.0, 0.0, 0.0, 0.0, 0.0, 0.0, 0.0, 1.7094213698569913E9, 0.0, 2024-03-02 15:16:09.856
45.0, 0.0, 0.0, -168779.87757681342, -187500.02235174447, -187500.02235174447, -170814.57922632448, 0.0, -187500.02235174447, 0.122, -0.014, 1.002, 192.0, 0.0, 0.0, 0.0, 0.0, 0.0, 0.0, 0.0, 0.0, 0.0, 1.709421369856996E9, 0.0, 2024-03-02 15:16:09.856
46.0, 0.0, 0.0, -168750.6861985548, -187500.02235174447, -187500.02235174447, -170725.06048978097, 0.0, -187500.02235174447, 0.122, -0.014, 1.002, 192.0, 0.0, 0.0, 0.0, 0.0, 0.0, 0.0, 0.0, 0.0, 0.0, 1.7094213698570008E9, 0.0, 2024-03-02 15:16:09.857
47.0, 0.0, 0.0, -168144.8868685826, -187500.02235174447, -187500.02235174447, -170113.06972659467, 0.0, -187500.02235174447, 0.122, -0.014, 1.002, 192.0, 0.0, 0.0, 0.0, 0.0, 0.0, 0.0, 0.0, 0.0, 0.0, 1.709421369857006E9, 0.0, 2024-03-02 15:16:09.857
48.0, 0.0, 0.0, -168098.21642615992, -187500.02235174447, -187500.02235174447, -170124.2455988223, 0.0, -187500.02235174447, 0.122, -0.014, 1.002, 192.0, 0.0, 0.0, 0.0, 0.0, 0.0, 0.0, 0.0, 0.0, 0.0, 1.7094213698570106E9, 0.0, 2024-03-02 15:16:09.857
49.0, 0.0, 0.0, -168750.1274049434, -187500.02235174447, -187500.02235174447, -170801.99519419615, 0.0, -187500.02235174447, 0.122, -0.014, 1.002, 192.0, 0.0, 0.0, 0.0, 0.0, 0.0, 0.0, 0.0, 0.0, 0.0, 1.7094213698570151E9, 0.0, 2024-03-02 15:16:09.857
50.0, 0.0, 0.0, -168947.1803840614, -187500.02235174447, -187500.02235174447, -170943.9511232318, 0.0, -187500.02235174447, 0.122, -0.014, 1.002, 192.0, 0.0, 0.0, 0.0, 0.0, 0.0, 0.0, 0.0, 0.0, 0.0, 1.70942136985702E9, 0.0, 2024-03-02 15:16:09.857
51.0, 0.0, 0.0, -168371.1982811926, -187500.02235174447, -187500.02235174447, -170332.56385714578, 0.0, -187500.02235174447, 0.122, -0.014, 1.002, 192.0, 0.0, 0.0, 0.0, 0.0, 0.0, 0.0, 0.0, 0.0, 0.0, 1.7094213698570247E9, 0.0, 2024-03-02 15:16:09.857
52.0, 0.0, 0.0, -168106.21835067493, -187500.02235174447, -187500.02235174447, -170128.38067154656, 0.0, -187500.02235174447, 0.122, -0.014, 1.002, 192.0, 0.0, 0.0, 0.0, 0.0, 0.0, 0.0, 0.0, 0.0, 0.0, 1.7094213698570292E9, 0.0, 2024-03-02 15:16:09.857
53.0, 0.0, 0.0, -168655.06543577497, -187500.02235174447, -187500.02235174447, -170711.26946345204, 0.0, -187500.02235174447, 0.11800000000000001, -0.012, 0.994, 192.0, 3.0, 176.0, 255.0, 160.0, 31.0, 16.0, 0.0, 0.0, 0.0, 1.709421369857034E9, 0.0, 2024-03-02 15:16:09.857
54.0, 0.0, 0.0, -168962.1784045909, -187500.02235174447, -187500.02235174447, -170968.98507702173, 0.0, -187500.02235174447, 0.11800000000000001, -0.012, 0.994, 192.0, 0.0, 0.0, 0.0, 0.0, 0.0, 0.0, 0.0, 0.0, 0.0, 1.709421369857039E9, 0.0, 2024-03-02 15:16:09.857
55.0, 0.0, 0.0, -168431.99502611102, -187500.02235174447, -187500.02235174447, -170394.3664305647, 0.0, -187500.02235174447, 0.11800000000000001, -0.012, 0.994, 192.0, 0.0, 0.0, 0.0, 0.0, 0.0, 0.0, 0.0, 0.0, 0.0, 1.7094213698570445E9, 0.0, 2024-03-02 15:16:09.857
56.0, 0.0, 0.0, -168041.59945745463, -187500.02235174447, -187500.02235174447, -170040.42655711493, 0.0, -187500.02235174447, 0.11800000000000001, -0.012, 0.994, 192.0, 0.0, 0.0, 0.0, 0.0, 0.0, 0.0, 0.0, 0.0, 0.0, 1.709421369857049E9, 0.0, 2024-03-02 15:16:09.857
57.0, 0.0, 0.0, -168497.5750443429, -187500.02235174447, -187500.02235174447, -170543.8996009707, 0.0, -187500.02235174447, 0.11800000000000001, -0.012, 0.994, 192.0, 0.0, 0.0, 0.0, 0.0, 0.0, 0.0, 0.0, 0.0, 0.0, 1.7094213698570538E9, 0.0, 2024-03-02 15:16:09.857
58.0, 0.0, 0.0, -168969.0403901387, -187500.02235174447, -187500.02235174447, -170981.70321961681, 0.0, -187500.02235174447, 0.11800000000000001, -0.012, 0.994, 192.0, 0.0, 0.0, 0.0, 0.0, 0.0, 0.0, 0.0, 0.0, 0.0, 1.7094213698570583E9, 0.0, 2024-03-02 15:16:09.857
59.0, 0.0, 0.0, -168541.94325708668, -187500.02235174447, -187500.02235174447, -170498.81613240435, 0.0, -187500.02235174447, 0.11800000000000001, -0.012, 0.994, 192.0, 0.0, 0.0, 0.0, 0.0, 0.0, 0.0, 0.0, 0.0, 0.0, 1.7094213698570633E9, 0.0, 2024-03-02 15:16:09.857
60.0, 0.0, 0.0, -168070.45555954642, -187500.02235174447, -187500.02235174447, -170057.54799336768, 0.0, -187500.02235174447, 0.11800000000000001, -0.012, 0.994, 192.0, 0.0, 0.0, 0.0, 0.0, 0.0, 0.0, 0.0, 0.0, 0.0, 1.709421369857068E9, 0.0, 2024-03-02 15:16:09.857
61.0, 0.0, 0.0, -168447.99887514103, -187500.02235174447, -187500.02235174447, -170489.71897241104, 0.0, -187500.02235174447, 0.11800000000000001, -0.012, 0.994, 192.0, 0.0, 0.0, 0.0, 0.0, 0.0, 0.0, 0.0, 0.0, 0.0, 1.709421369857073E9, 0.0, 2024-03-02 15:16:09.857
62.0, 0.0, 0.0, -168994.40962009545, -187500.02235174447, -187500.02235174447, -171018.69535669035, 0.0, -187500.02235174447, 0.11800000000000001, -0.012, 0.994, 192.0, 0.0, 0.0, 0.0, 0.0, 0.0, 0.0, 0.0, 0.0, 0.0, 1.7094213698570776E9, 0.0, 2024-03-02 15:16:09.857
63.0, 0.0, 0.0, -168716.01864290462, -187500.02235174447, -187500.02235174447, -170679.70880028117, 0.0, -187500.02235174447, 0.126, -0.008, 0.986, 192.0, 3.0, 240.0, 255.0, 192.0, 30.0, 208.0, 0.0, 0.0, 0.0, 1.7094213698570824E9, 0.0, 2024-03-02 15:16:09.857
64.0, 0.0, 0.0, -168142.71874937043, -187500.02235174447, -187500.02235174447, -170123.68680521095, 0.0, -187500.02235174447, 0.126, -0.008, 0.986, 192.0, 0.0, 0.0, 0.0, 0.0, 0.0, 0.0, 0.0, 0.0, 0.0, 1.7094213698570871E9, 0.0, 2024-03-02 15:16:09.857
65.0, 0.0, 0.0, -168313.48607700897, -187500.02235174447, -187500.02235174447, -170354.73678764544, 0.0, -187500.02235174447, 0.126, -0.008, 0.986, 192.0, 0.0, 0.0, 0.0, 0.0, 0.0, 0.0, 0.0, 0.0, 0.0, 1.7094213698570917E9, 0.0, 2024-03-02 15:16:09.857
66.0, 0.0, 0.0, -168933.63522692147, -187500.02235174447, -187500.02235174447, -170975.9141178029, 0.0, -187500.02235174447, 0.126, -0.008, 0.986, 192.0, 0.0, 0.0, 0.0, 0.0, 0.0, 0.0, 0.0, 0.0, 0.0, 1.7094213698570967E9, 0.0, 2024-03-02 15:16:09.857
67.0, 0.0, 0.0, -168796.39551596588, -187500.02235174447, -187500.02235174447, -170773.69788571572, 0.0, -187500.02235174447, 0.126, -0.008, 0.986, 192.0, 0.0, 0.0, 0.0, 0.0, 0.0, 0.0, 0.0, 0.0, 0.0, 1.7094213698571017E9, 0.0, 2024-03-02 15:16:09.857
68.0, 0.0, 0.0, -168132.54870564328, -187500.02235174447, -187500.02235174447, -170107.66060443647, 0.0, -187500.02235174447, 0.126, -0.008, 0.986, 192.0, 0.0, 0.0, 0.0, 0.0, 0.0, 0.0, 0.0, 0.0, 0.0, 1.7094213698571064E9, 0.0, 2024-03-02 15:16:09.857
69.0, 0.0, 0.0, -168142.696397626, -187500.02235174447, -187500.02235174447, -170174.73818954686, 0.0, -187500.02235174447, 0.126, -0.008, 0.986, 192.0, 0.0, 0.0, 0.0, 0.0, 0.0, 0.0, 0.0, 0.0, 0.0, 1.7094213698571112E9, 0.0, 2024-03-02 15:16:09.857
70.0, 0.0, 0.0, -168768.3440766745, -187500.02235174447, -187500.02235174447, -170814.9592059802, 0.0, -187500.02235174447, 0.126, -0.008, 0.986, 192.0, 0.0, 0.0, 0.0, 0.0, 0.0, 0.0, 0.0, 0.0, 0.0, 1.709421369857116E9, 0.0, 2024-03-02 15:16:09.857
71.0, 0.0, 0.0, -168796.55197817707, -187500.02235174447, -187500.02235174447, -170785.94664167723, 0.0, -187500.02235174447, 0.126, -0.008, 0.986, 192.0, 0.0, 0.0, 0.0, 0.0, 0.0, 0.0, 0.0, 0.0, 0.0, 1.7094213698571205E9, 0.0, 2024-03-02 15:16:09.857
72.0, 0.0, 0.0, -168131.52052539831, -187500.02235174447, -187500.02235174447, -170099.90454911048, 0.0, -187500.02235174447, 0.126, -0.008, 0.986, 192.0, 0.0, 0.0, 0.0, 0.0, 0.0, 0.0, 0.0, 0.0, 0.0, 1.7094213698571253E9, 0.0, 2024-03-02 15:16:09.857
73.0, 0.0, 0.0, -167969.76095077526, -187500.02235174447, -187500.02235174447, -169999.9251961619, 0.0, -187500.02235174447, 0.124, -0.008, 0.99, 192.0, 3.0, 224.0, 255.0, 192.0, 30.0, 240.0, 0.0, 0.0, 0.0, 1.70942136985713E9, 0.0, 2024-03-02 15:16:09.857
74.0, 0.0, 0.0, -168577.68369647072, -187500.02235174447, -187500.02235174447, -170622.08600307538, 0.0, -187500.02235174447, 0.124, -0.008, 0.99, 192.0, 0.0, 0.0, 0.0, 0.0, 0.0, 0.0, 0.0, 0.0, 0.0, 1.709421369857135E9, 0.0, 2024-03-02 15:16:09.857
75.0, 0.0, 0.0, -168742.25959089515, -187500.02235174447, -187500.02235174447, -170729.75435611658, 0.0, -187500.02235174447, 0.124, -0.008, 0.99, 192.0, 0.0, 0.0, 0.0, 0.0, 0.0, 0.0, 0.0, 0.0, 0.0, 1.7094213698571396E9, 0.0, 2024-03-02 15:16:09.857
76.0, 0.0, 0.0, -168148.3960924621, -187500.02235174447, -187500.02235174447, -170101.02213633325, 0.0, -187500.02235174447, 0.124, -0.008, 0.99, 192.0, 0.0, 0.0, 0.0, 0.0, 0.0, 0.0, 0.0, 0.0, 0.0, 1.7094213698571446E9, 0.0, 2024-03-02 15:16:09.857
77.0, 0.0, 0.0, -167839.49498408975, -187500.02235174447, -187500.02235174447, -169841.60779018496, 0.0, -187500.02235174447, 0.124, -0.008, 0.99, 192.0, 0.0, 0.0, 0.0, 0.0, 0.0, 0.0, 0.0, 0.0, 0.0, 1.7094213698571491E9, 0.0, 2024-03-02 15:16:09.857
78.0, 0.0, 0.0, -168352.5792780613, -187500.02235174447, -187500.02235174447, -170389.65021248464, 0.0, -187500.02235174447, 0.124, -0.008, 0.99, 192.0, 0.0, 0.0, 0.0, 0.0, 0.0, 0.0, 0.0, 0.0, 0.0, 1.709421369857154E9, 0.0, 2024-03-02 15:16:09.857
79.0, 0.0, 0.0, -168680.27820352057, -187500.02235174447, -187500.02235174447, -170682.9945067161, 0.0, -187500.02235174447, 0.124, -0.008, 0.99, 192.0, 0.0, 0.0, 0.0, 0.0, 0.0, 0.0, 0.0, 0.0, 0.0, 1.709421369857159E9, 0.0, 2024-03-02 15:16:09.857
80.0, 0.0, 0.0, -168194.3512790622, -187500.02235174447, -187500.02235174447, -170149.50307005682, 0.0, -187500.02235174447, 0.124, -0.008, 0.99, 192.0, 0.0, 0.0, 0.0, 0.0, 0.0, 0.0, 0.0, 0.0, 0.0, 1.709421369857164E9, 0.0, 2024-03-02 15:16:09.857
81.0, 0.0, 0.0, -167736.1852212173, -187500.02235174447, -187500.02235174447, -169728.08328009647, 0.0, -187500.02235174447, 0.124, -0.008, 0.99, 192.0, 0.0, 0.0, 0.0, 0.0, 0.0, 0.0, 0.0, 0.0, 0.0, 1.7094213698571684E9, 0.0, 2024-03-02 15:16:09.857
82.0, 0.0, 0.0, -168123.4738973944, -187500.02235174447, -187500.02235174447, -170166.13276793156, 0.0, -187500.02235174447, 0.124, -0.008, 0.99, 192.0, 0.0, 0.0, 0.0, 0.0, 0.0, 0.0, 0.0, 0.0, 0.0, 1.7094213698571732E9, 0.0, 2024-03-02 15:16:09.857
83.0, 0.0, 0.0, -168620.21906616917, -187500.02235174447, -187500.02235174447, -170636.3240642934, 0.0, -187500.02235174447, 0.12, -0.01, 0.99, 192.0, 3.0, 192.0, 255.0, 176.0, 30.0, 240.0, 0.0, 0.0, 0.0, 1.709421369857178E9, 0.0, 2024-03-02 15:16:09.857
84.0, 0.0, 0.0, -168277.03038180238, -187500.02235174447, -187500.02235174447, -170232.36098675264, 0.0, -187500.02235174447, 0.12, -0.01, 0.99, 192.0, 0.0, 0.0, 0.0, 0.0, 0.0, 0.0, 0.0, 0.0, 0.0, 1.7094213698571825E9, 0.0, 2024-03-02 15:16:09.857
85.0, 0.0, 0.0, -167757.01704704965, -187500.02235174447, -187500.02235174447, -169728.57501847448, 0.0, -187500.02235174447, 0.12, -0.01, 0.99, 192.0, 0.0, 0.0, 0.0, 0.0, 0.0, 0.0, 0.0, 0.0, 0.0, 1.7094213698571875E9, 0.0, 2024-03-02 15:16:09.857
86.0, 0.0, 0.0, -167990.9504045189, -187500.02235174447, -187500.02235174447, -170030.77060351023, 0.0, -187500.02235174447, 0.12, -0.01, 0.99, 192.0, 0.0, 0.0, 0.0, 0.0, 0.0, 0.0, 0.0, 0.0, 0.0, 1.709421369857192E9, 0.0, 2024-03-02 15:16:09.857
87.0, 0.0, 0.0, -168566.82074866543, -187500.02235174447, -187500.02235174447, -170606.6632994012, 0.0, -187500.02235174447, 0.12, -0.01, 0.99, 192.0, 0.0, 0.0, 0.0, 0.0, 0.0, 0.0, 0.0, 0.0, 0.0, 1.7094213698571973E9, 0.0, 2024-03-02 15:16:09.857
88.0, 0.0, 0.0, -168355.46265309604, -187500.02235174447, -187500.02235174447, -170334.82138333577, 0.0, -187500.02235174447, 0.12, -0.01, 0.99, 192.0, 0.0, 0.0, 0.0, 0.0, 0.0, 0.0, 0.0, 0.0, 0.0, 1.709421369857202E9, 0.0, 2024-03-02 15:16:09.857
89.0, 0.0, 0.0, -167784.73321017425, -187500.02235174447, -187500.02235174447, -169768.53993756056, 0.0, -187500.02235174447, 0.12, -0.01, 0.99, 192.0, 0.0, 0.0, 0.0, 0.0, 0.0, 0.0, 0.0, 0.0, 0.0, 1.7094213698572066E9, 0.0, 2024-03-02 15:16:09.857
90.0, 0.0, 0.0, -167957.6910087694, -187500.02235174447, -187500.02235174447, -170012.41982131242, 0.0, -187500.02235174447, 0.12, -0.01, 0.99, 192.0, 0.0, 0.0, 0.0, 0.0, 0.0, 0.0, 0.0, 0.0, 0.0, 1.709421369857211E9, 0.0, 2024-03-02 15:16:09.857
91.0, 0.0, 0.0, -168602.538836305, -187500.02235174447, -187500.02235174447, -170661.782701228, 0.0, -187500.02235174447, 0.12, -0.01, 0.99, 192.0, 0.0, 0.0, 0.0, 0.0, 0.0, 0.0, 0.0, 0.0, 0.0, 1.709421369857216E9, 0.0, 2024-03-02 15:16:09.857
92.0, 0.0, 0.0, -168530.05212903646, -187500.02235174447, -187500.02235174447, -170518.44096403613, 0.0, -187500.02235174447, 0.12, -0.01, 0.99, 192.0, 0.0, 0.0, 0.0, 0.0, 0.0, 0.0, 0.0, 0.0, 0.0, 1.709421369857221E9, 0.0, 2024-03-02 15:16:09.857
93.0, 0.0, 0.0, -167905.56674069964, -187500.02235174447, -187500.02235174447, -169880.43277030383, 0.0, -187500.02235174447, 0.124, -0.004, 0.992, 192.0, 3.0, 224.0, 255.0, 224.0, 31.0, 0.0, 0.0, 0.0, 0.0, 1.709421369857226E9, 0.0, 2024-03-02 15:16:09.857
94.0, 0.0, 0.0, -167882.85736833303, -187500.02235174447, -187500.02235174447, -169915.32384339857, 0.0, -187500.02235174447, 0.124, -0.004, 0.992, 192.0, 0.0, 0.0, 0.0, 0.0, 0.0, 0.0, 0.0, 0.0, 0.0, 1.7094213698572307E9, 0.0, 2024-03-02 15:16:09.857
95.0, 0.0, 0.0, -168515.54584688495, -187500.02235174447, -187500.02235174447, -170567.6148018378, 0.0, -187500.02235174447, 0.124, -0.004, 0.992, 192.0, 0.0, 0.0, 0.0, 0.0, 0.0, 0.0, 0.0, 0.0, 0.0, 1.7094213698572352E9, 0.0, 2024-03-02 15:16:09.857
96.0, 0.0, 0.0, -168582.53402501752, -187500.02235174447, -187500.02235174447, -170560.14931918972, 0.0, -187500.02235174447, 0.124, -0.004, 0.992, 192.0, 0.0, 0.0, 0.0, 0.0, 0.0, 0.0, 0.0, 0.0, 0.0, 1.70942136985724E9, 0.0, 2024-03-02 15:16:09.857
97.0, 0.0, 0.0, -167983.44021838193, -187500.02235174447, -187500.02235174447, -169937.7649948317, 0.0, -187500.02235174447, 0.124, -0.004, 0.992, 192.0, 0.0, 0.0, 0.0, 0.0, 0.0, 0.0, 0.0, 0.0, 0.0, 1.7094213698572447E9, 0.0, 2024-03-02 15:16:09.857
98.0, 0.0, 0.0, -167780.17345430536, -187500.02235174447, -187500.02235174447, -169800.9276152763, 0.0, -187500.02235174447, 0.124, -0.004, 0.992, 192.0, 0.0, 0.0, 0.0, 0.0, 0.0, 0.0, 0.0, 0.0, 0.0, 1.7094213698572495E9, 0.0, 2024-03-02 15:16:09.857
99.0, 0.0, 0.0, -168310.22272231852, -187500.02235174447, -187500.02235174447, -170364.83977613924, 0.0, -187500.02235174447, 0.124, -0.004, 0.992, 192.0, 0.0, 0.0, 0.0, 0.0, 0.0, 0.0, 0.0, 0.0, 0.0, 1.709421369857254E9, 0.0, 2024-03-02 15:16:09.857
100.0, 0.0, 0.0, -168610.9877957091, -187500.02235174447, -187500.02235174447, -170610.28428200298, 0.0, -187500.02235174447, 0.124, -0.004, 0.992, 192.0, 0.0, 0.0, 0.0, 0.0, 0.0, 0.0, 0.0, 0.0, 0.0, 1.7094213698572593E9, 0.0, 2024-03-02 15:16:09.857
101.0, 0.0, 0.0, -168010.150553006, -187500.02235174447, -187500.02235174447, -169974.31009701613, 0.0, -187500.02235174447, 0.124, -0.004, 0.992, 192.0, 0.0, 0.0, 0.0, 0.0, 0.0, 0.0, 0.0, 0.0, 0.0, 1.709421369857264E9, 0.0, 2024-03-02 15:16:09.857
102.0, 0.0, 0.0, -167652.63440044338, -187500.02235174447, -187500.02235174447, -169669.1417299678, 0.0, -187500.02235174447, 0.124, -0.004, 0.992, 192.0, 0.0, 0.0, 0.0, 0.0, 0.0, 0.0, 0.0, 0.0, 0.0, 1.7094213698572686E9, 0.0, 2024-03-02 15:16:09.857
103.0, 0.0, 0.0, -168138.1366417571, -187500.02235174447, -187500.02235174447, -170193.29013744477, 0.0, -187500.02235174447, 0.12, -0.006, 0.996, 192.0, 3.0, 192.0, 255.0, 208.0, 31.0, 32.0, 0.0, 0.0, 0.0, 1.7094213698572736E9, 0.0, 2024-03-02 15:16:09.857
104.0, 0.0, 0.0, -168556.47189098262, -187500.02235174447, -187500.02235174447, -170571.12402571726, 0.0, -187500.02235174447, 0.12, -0.006, 0.996, 192.0, 0.0, 0.0, 0.0, 0.0, 0.0, 0.0, 0.0, 0.0, 0.0, 1.7094213703364584E9, 0.0, 2024-03-02 15:16:10.336
105.0, 0.0, 0.0, -168099.55753082724, -187500.02235174447, -187500.02235174447, -170061.21367945836, 0.0, -187500.02235174447, 0.12, -0.006, 0.996, 192.0, 0.0, 0.0, 0.0, 0.0, 0.0, 0.0, 0.0, 0.0, 0.0, 1.7094213703364823E9, 0.0, 2024-03-02 15:16:10.336
106.0, 0.0, 0.0, -167598.319661417, -187500.02235174447, -187500.02235174447, -169593.14579881978, 0.0, -187500.02235174447, 0.12, -0.006, 0.996, 192.0, 0.0, 0.0, 0.0, 0.0, 0.0, 0.0, 0.0, 0.0, 0.0, 1.7094213703364975E9, 0.0, 2024-03-02 15:16:10.336
107.0, 0.0, 0.0, -167966.47524434034, -187500.02235174447, -187500.02235174447, -170015.25849285824, 0.0, -187500.02235174447, 0.12, -0.006, 0.996, 192.0, 0.0, 0.0, 0.0, 0.0, 0.0, 0.0, 0.0, 0.0, 0.0, 1.7094213703365045E9, 0.0, 2024-03-02 15:16:10.336
108.0, 0.0, 0.0, -168466.99785792804, -187500.02235174447, -187500.02235174447, -170493.92110036864, 0.0, -187500.02235174447, 0.12, -0.006, 0.996, 192.0, 0.0, 0.0, 0.0, 0.0, 0.0, 0.0, 0.0, 0.0, 0.0, 1.7094213703365223E9, 0.0, 2024-03-02 15:16:10.336
109.0, 0.0, 0.0, -168110.84516177716, -187500.02235174447, -187500.02235174447, -170082.5595954132, 0.0, -187500.02235174447, 0.12, -0.006, 0.996, 192.0, 0.0, 0.0, 0.0, 0.0, 0.0, 0.0, 0.0, 0.0, 0.0, 1.7094213703365357E9, 0.0, 2024-03-02 15:16:10.336
110.0, 0.0, 0.0, -167494.04877353297, -187500.02235174447, -187500.02235174447, -169486.21505334557, 0.0, -187500.02235174447, 0.12, -0.006, 0.996, 192.0, 0.0, 0.0, 0.0, 0.0, 0.0, 0.0, 0.0, 0.0, 0.0, 1.7094213703365588E9, 0.0, 2024-03-02 15:16:10.336
111.0, 0.0, 0.0, -167692.5322642961, -187500.02235174447, -187500.02235174447, -169742.3213413145, 0.0, -187500.02235174447, 0.12, -0.006, 0.996, 192.0, 0.0, 0.0, 0.0, 0.0, 0.0, 0.0, 0.0, 0.0, 0.0, 1.7094213703365798E9, 0.0, 2024-03-02 15:16:10.336
112.0, 0.0, 0.0, -168241.82638428526, -187500.02235174447, -187500.02235174447, -170283.9488129555, 0.0, -187500.02235174447, 0.12, -0.006, 0.996, 192.0, 0.0, 0.0, 0.0, 0.0, 0.0, 0.0, 0.0, 0.0, 0.0, 1.709421370336589E9, 0.0, 2024-03-02 15:16:10.336
113.0, 0.0, 0.0, -168068.5109577788, -187500.02235174447, -187500.02235174447, -170044.71809205035, 0.0, -187500.02235174447, 0.116, -0.008, 0.996, 192.0, 3.0, 160.0, 255.0, 192.0, 31.0, 32.0, 0.0, 0.0, 0.0, 1.7094213703365953E9, 0.0, 2024-03-02 15:16:10.336
114.0, 0.0, 0.0, -167404.4182782672, -187500.02235174447, -187500.02235174447, -169381.8324067393, 0.0, -187500.02235174447, 0.116, -0.008, 0.996, 192.0, 0.0, 0.0, 0.0, 0.0, 0.0, 0.0, 0.0, 0.0, 0.0, 1.7094213703366003E9, 0.0, 2024-03-02 15:16:10.336
115.0, 0.0, 0.0, -167407.2122463241, -187500.02235174447, -187500.02235174447, -169444.01495981397, 0.0, -187500.02235174447, 0.116, -0.008, 0.996, 192.0, 0.0, 0.0, 0.0, 0.0, 0.0, 0.0, 0.0, 0.0, 0.0, 1.7094213703366055E9, 0.0, 2024-03-02 15:16:10.336
116.0, 0.0, 0.0, -167986.23418643884, -187500.02235174447, -187500.02235174447, -170031.64232154397, 0.0, -187500.02235174447, 0.116, -0.008, 0.996, 192.0, 0.0, 0.0, 0.0, 0.0, 0.0, 0.0, 0.0, 0.0, 0.0, 1.7094213703366103E9, 0.0, 2024-03-02 15:16:10.336
117.0, 0.0, 0.0, -167955.23231687932, -187500.02235174447, -187500.02235174447, -169941.90006755592, 0.0, -187500.02235174447, 0.116, -0.008, 0.996, 192.0, 0.0, 0.0, 0.0, 0.0, 0.0, 0.0, 0.0, 0.0, 0.0, 1.709421370336615E9, 0.0, 2024-03-02 15:16:10.336
118.0, 0.0, 0.0, -167249.45363395853, -187500.02235174447, -187500.02235174447, -169222.2409513284, 0.0, -187500.02235174447, 0.116, -0.008, 0.996, 192.0, 0.0, 0.0, 0.0, 0.0, 0.0, 0.0, 0.0, 0.0, 0.0, 1.70942137033662E9, 0.0, 2024-03-02 15:16:10.336
119.0, 0.0, 0.0, -167095.31600419476, -187500.02235174447, -187500.02235174447, -169124.25090363633, 0.0, -187500.02235174447, 0.116, -0.008, 0.996, 192.0, 0.0, 0.0, 0.0, 0.0, 0.0, 0.0, 0.0, 0.0, 0.0, 1.7094213703366249E9, 0.0, 2024-03-02 15:16:10.336
120.0, 0.0, 0.0, -167668.14651109537, -187500.02235174447, -187500.02235174447, -169724.819925406, 0.0, -187500.02235174447, 0.116, -0.008, 0.996, 192.0, 0.0, 0.0, 0.0, 0.0, 0.0, 0.0, 0.0, 0.0, 0.0, 1.7094213703366299E9, 0.0, 2024-03-02 15:16:10.336
121.0, 0.0, 0.0, -167802.03346038263, -187500.02235174447, -187500.02235174447, -169803.9898042667, 0.0, -187500.02235174447, 0.116, -0.008, 0.996, 192.0, 0.0, 0.0, 0.0, 0.0, 0.0, 0.0, 0.0, 0.0, 0.0, 1.7094213703366344E9, 0.0, 2024-03-02 15:16:10.336
122.0, 0.0, 0.0, -167174.21766212198, -187500.02235174447, -187500.02235174447, -169141.26058116683, 0.0, -187500.02235174447, 0.116, -0.008, 0.996, 192.0, 0.0, 0.0, 0.0, 0.0, 0.0, 0.0, 0.0, 0.0, 0.0, 1.7094213703366392E9, 0.0, 2024-03-02 15:16:10.336
123.0, 0.0, 0.0, -166892.80919942967, -187500.02235174447, -187500.02235174447, -168909.0706597651, 0.0, -187500.02235174447, 0.116, -0.008, 0.996, 192.0, 3.0, 160.0, 255.0, 192.0, 31.0, 32.0, 0.0, 0.0, 0.0, 1.7094213703366437E9, 0.0, 2024-03-02 15:16:10.336
124.0, 0.0, 0.0, -167415.3706330503, -187500.02235174447, -187500.02235174447, -169461.4493204891, 0.0, -187500.02235174447, 0.116, -0.008, 0.996, 192.0, 0.0, 0.0, 0.0, 0.0, 0.0, 0.0, 0.0, 0.0, 0.0, 1.7094213703366487E9, 0.0, 2024-03-02 15:16:10.336
125.0, 0.0, 0.0, -167692.24169161817, -187500.02235174447, -187500.02235174447, -169702.17760827276, 0.0, -187500.02235174447, 0.116, -0.008, 0.996, 192.0, 0.0, 0.0, 0.0, 0.0, 0.0, 0.0, 0.0, 0.0, 0.0, 1.7094213703366535E9, 0.0, 2024-03-02 15:16:10.336
126.0, 0.0, 0.0, -167154.77164444586, -187500.02235174447, -187500.02235174447, -169119.177057645, 0.0, -187500.02235174447, 0.116, -0.008, 0.996, 192.0, 0.0, 0.0, 0.0, 0.0, 0.0, 0.0, 0.0, 0.0, 0.0, 1.7094213703366587E9, 0.0, 2024-03-02 15:16:10.336
127.0, 0.0, 0.0, -166750.29447678264, -187500.02235174447, -187500.02235174447, -168754.75421604567, 0.0, -187500.02235174447, 0.116, -0.008, 0.996, 192.0, 0.0, 0.0, 0.0, 0.0, 0.0, 0.0, 0.0, 0.0, 0.0, 1.7094213703366635E9, 0.0, 2024-03-02 15:16:10.336
128.0, 0.0, 0.0, -167141.15943207257, -187500.02235174447, -187500.02235174447, -169194.9941748374, 0.0, -187500.02235174447, 0.116, -0.008, 0.996, 192.0, 0.0, 0.0, 0.0, 0.0, 0.0, 0.0, 0.0, 0.0, 0.0, 1.7094213703366683E9, 0.0, 2024-03-02 15:16:10.336
129.0, 0.0, 0.0, -167570.89407097033, -187500.02235174447, -187500.02235174447, -169593.8834063868, 0.0, -187500.02235174447, 0.116, -0.008, 0.996, 192.0, 0.0, 0.0, 0.0, 0.0, 0.0, 0.0, 0.0, 0.0, 0.0, 1.7094213703366728E9, 0.0, 2024-03-02 15:16:10.336
130.0, 0.0, 0.0, -167106.11189676667, -187500.02235174447, -187500.02235174447, -169070.80788264368, 0.0, -187500.02235174447, 0.116, -0.008, 0.996, 192.0, 0.0, 0.0, 0.0, 0.0, 0.0, 0.0, 0.0, 0.0, 0.0, 1.7094213703366773E9, 0.0, 2024-03-02 15:16:10.336
131.0, 0.0, 0.0, -166554.13556744286, -187500.02235174447, -187500.02235174447, -168540.51274544155, 0.0, -187500.02235174447, 0.116, -0.008, 0.996, 192.0, 0.0, 0.0, 0.0, 0.0, 0.0, 0.0, 0.0, 0.0, 0.0, 1.709421370336682E9, 0.0, 2024-03-02 15:16:10.336
132.0, 0.0, 0.0, -166822.378852651, -187500.02235174447, -187500.02235174447, -168863.49545282073, 0.0, -187500.02235174447, 0.116, -0.008, 0.996, 192.0, 0.0, 0.0, 0.0, 0.0, 0.0, 0.0, 0.0, 0.0, 0.0, 1.7094213703366864E9, 0.0, 2024-03-02 15:16:10.336
133.0, 0.0, 0.0, -167345.27556243844, -187500.02235174447, -187500.02235174447, -169381.9888689505, 0.0, -187500.02235174447, 0.11800000000000001, -0.012, 0.966, 192.0, 3.0, 176.0, 255.0, 160.0, 30.0, 48.0, 0.0, 0.0, 0.0, 1.7094213703366916E9, 0.0, 2024-03-02 15:16:10.336
134.0, 0.0, 0.0, -167037.6708552445, -187500.02235174447, -187500.02235174447, -169008.73708829132, 0.0, -187500.02235174447, 0.11800000000000001, -0.012, 0.966, 192.0, 0.0, 0.0, 0.0, 0.0, 0.0, 0.0, 0.0, 0.0, 0.0, 1.709421370336696E9, 0.0, 2024-03-02 15:16:10.336
135.0, 0.0, 0.0, -166430.17279269372, -187500.02235174447, -187500.02235174447, -168408.3468804773, 0.0, -187500.02235174447, 0.11800000000000001, -0.012, 0.966, 192.0, 0.0, 0.0, 0.0, 0.0, 0.0, 0.0, 0.0, 0.0, 0.0, 1.709421370336701E9, 0.0, 2024-03-02 15:16:10.336
136.0, 0.0, 0.0, -166562.98685824717, -187500.02235174447, -187500.02235174447, -168601.17537989325, 0.0, -187500.02235174447, 0.11800000000000001, -0.012, 0.966, 192.0, 0.0, 0.0, 0.0, 0.0, 0.0, 0.0, 0.0, 0.0, 0.0, 1.7094213703367052E9, 0.0, 2024-03-02 15:16:10.336
137.0, 0.0, 0.0, -167177.34690634572, -187500.02235174447, -187500.02235174447, -169212.38383202362, 0.0, -187500.02235174447, 0.11800000000000001, -0.012, 0.966, 192.0, 0.0, 0.0, 0.0, 0.0, 0.0, 0.0, 0.0, 0.0, 0.0, 1.70942137033671E9, 0.0, 2024-03-02 15:16:10.336
138.0, 0.0, 0.0, -167037.0226546553, -187500.02235174447, -187500.02235174447, -169009.00530922477, 0.0, -187500.02235174447, 0.11800000000000001, -0.012, 0.966, 192.0, 0.0, 0.0, 0.0, 0.0, 0.0, 0.0, 0.0, 0.0, 0.0, 1.7094213703367147E9, 0.0, 2024-03-02 15:16:10.336
139.0, 0.0, 0.0, -166485.3368980094, -187500.02235174447, -187500.02235174447, -168453.96679091058, 0.0, -187500.02235174447, 0.11800000000000001, -0.012, 0.966, 192.0, 0.0, 0.0, 0.0, 0.0, 0.0, 0.0, 0.0, 0.0, 0.0, 1.70942137033672E9, 0.0, 2024-03-02 15:16:10.336
140.0, 0.0, 0.0, -166546.58067781696, -187500.02235174447, -187500.02235174447, -168575.3367633029, 0.0, -187500.02235174447, 0.11800000000000001, -0.012, 0.966, 192.0, 0.0, 0.0, 0.0, 0.0, 0.0, 0.0, 0.0, 0.0, 0.0, 1.7094213703367243E9, 0.0, 2024-03-02 15:16:10.336
141.0, 0.0, 0.0, -167141.6511704506, -187500.02235174447, -187500.02235174447, -169183.77359912082, 0.0, -187500.02235174447, 0.11800000000000001, -0.012, 0.966, 192.0, 0.0, 0.0, 0.0, 0.0, 0.0, 0.0, 0.0, 0.0, 0.0, 1.7094213703367293E9, 0.0, 2024-03-02 15:16:10.336
142.0, 0.0, 0.0, -167210.87452302867, -187500.02235174447, -187500.02235174447, -169193.0942765587, 0.0, -187500.02235174447, 0.11800000000000001, -0.012, 0.966, 192.0, 0.0, 0.0, 0.0, 0.0, 0.0, 0.0, 0.0, 0.0, 0.0, 1.7094213703367338E9, 0.0, 2024-03-02 15:16:10.336
143.0, 0.0, 0.0, -166630.66794045782, -187500.02235174447, -187500.02235174447, -168592.48055130013, 0.0, -187500.02235174447, 0.11800000000000001, -0.006, 0.978, 192.0, 3.0, 176.0, 255.0, 208.0, 30.0, 144.0, 0.0, 0.0, 0.0, 1.7094213703367386E9, 0.0, 2024-03-02 15:16:10.336
144.0, 0.0, 0.0, -166510.39320354382, -187500.02235174447, -187500.02235174447, -168532.48846918208, 0.0, -187500.02235174447, 0.11800000000000001, -0.006, 0.978, 192.0, 0.0, 0.0, 0.0, 0.0, 0.0, 0.0, 0.0, 0.0, 0.0, 1.709421370336743E9, 0.0, 2024-03-02 15:16:10.336
145.0, 0.0, 0.0, -167083.7378005669, -187500.02235174447, -187500.02235174447, -169136.25379040884, 0.0, -187500.02235174447, 0.11800000000000001, -0.006, 0.978, 192.0, 0.0, 0.0, 0.0, 0.0, 0.0, 0.0, 0.0, 0.0, 0.0, 1.709421370336748E9, 0.0, 2024-03-02 15:16:10.336
146.0, 0.0, 0.0, -167316.86649523576, -187500.02235174447, -187500.02235174447, -169316.5653129298, 0.0, -187500.02235174447, 0.11800000000000001, -0.006, 0.978, 192.0, 0.0, 0.0, 0.0, 0.0, 0.0, 0.0, 0.0, 0.0, 0.0, 1.709421370336753E9, 0.0, 2024-03-02 15:16:10.336
147.0, 0.0, 0.0, -166825.9774835083, -187500.02235174447, -187500.02235174447, -168786.44898968327, 0.0, -187500.02235174447, 0.11800000000000001, -0.006, 0.978, 192.0, 0.0, 0.0, 0.0, 0.0, 0.0, 0.0, 0.0, 0.0, 0.0, 1.7094213703367577E9, 0.0, 2024-03-02 15:16:10.336
148.0, 0.0, 0.0, -166604.96343433423, -187500.02235174447, -187500.02235174447, -168613.2006184102, 0.0, -187500.02235174447, 0.11800000000000001, -0.006, 0.978, 192.0, 0.0, 0.0, 0.0, 0.0, 0.0, 0.0, 0.0, 0.0, 0.0, 1.709421370336762E9, 0.0, 2024-03-02 15:16:10.336
149.0, 0.0, 0.0, -167153.58700198974, -187500.02235174447, -187500.02235174447, -169211.35565177866, 0.0, -187500.02235174447, 0.11800000000000001, -0.006, 0.978, 192.0, 0.0, 0.0, 0.0, 0.0, 0.0, 0.0, 0.0, 0.0, 0.0, 1.7094213703367667E9, 0.0, 2024-03-02 15:16:10.336
150.0, 0.0, 0.0, -167533.63371296332, -187500.02235174447, -187500.02235174447, -169553.20323147814, 0.0, -187500.02235174447, 0.11800000000000001, -0.006, 0.978, 192.0, 0.0, 0.0, 0.0, 0.0, 0.0, 0.0, 0.0, 0.0, 0.0, 1.7094213703367715E9, 0.0, 2024-03-02 15:16:10.336
151.0, 0.0, 0.0, -167126.78726038782, -187500.02235174447, -187500.02235174447, -169097.5182172678, 0.0, -187500.02235174447, 0.11800000000000001, -0.006, 0.978, 192.0, 0.0, 0.0, 0.0, 0.0, 0.0, 0.0, 0.0, 0.0, 0.0, 1.709421370336776E9, 0.0, 2024-03-02 15:16:10.336
152.0, 0.0, 0.0, -166708.0496797621, -187500.02235174447, -187500.02235174447, -168716.35391907144, 0.0, -187500.02235174447, 0.11800000000000001, -0.006, 0.978, 192.0, 0.0, 0.0, 0.0, 0.0, 0.0, 0.0, 0.0, 0.0, 0.0, 1.7094213703367808E9, 0.0, 2024-03-02 15:16:10.336
153.0, 0.0, 0.0, -167109.95639681298, -187500.02235174447, -187500.02235174447, -169169.89316581408, 0.0, -187500.02235174447, 0.128, -0.008, 0.986, 192.0, 4.0, 0.0, 255.0, 192.0, 30.0, 208.0, 0.0, 0.0, 0.0, 1.7094213703367856E9, 0.0, 2024-03-02 15:16:10.336
154.0, 0.0, 0.0, -167644.69953116175, -187500.02235174447, -187500.02235174447, -169678.17183472775, 0.0, -187500.02235174447, 0.128, -0.008, 0.986, 192.0, 0.0, 0.0, 0.0, 0.0, 0.0, 0.0, 0.0, 0.0, 0.0, 1.70942137033679E9, 0.0, 2024-03-02 15:16:10.336
155.0, 0.0, 0.0, -167378.8478826103, -187500.02235174447, -187500.02235174447, -169340.74990043044, 0.0, -187500.02235174447, 0.128, -0.008, 0.986, 192.0, 0.0, 0.0, 0.0, 0.0, 0.0, 0.0, 0.0, 0.0, 0.0, 1.7094213703367949E9, 0.0, 2024-03-02 15:16:10.336
156.0, 0.0, 0.0, -166850.4302919424, -187500.02235174447, -187500.02235174447, -168832.53828675012, 0.0, -187500.02235174447, 0.128, -0.008, 0.986, 192.0, 0.0, 0.0, 0.0, 0.0, 0.0, 0.0, 0.0, 0.0, 0.0, 1.7094213703367991E9, 0.0, 2024-03-02 15:16:10.336
157.0, 0.0, 0.0, -167085.14596046758, -187500.02235174447, -187500.02235174447, -169126.79900250424, 0.0, -187500.02235174447, 0.128, -0.008, 0.986, 192.0, 0.0, 0.0, 0.0, 0.0, 0.0, 0.0, 0.0, 0.0, 0.0, 1.709421370336804E9, 0.0, 2024-03-02 15:16:10.336
158.0, 0.0, 0.0, -167689.335964839, -187500.02235174447, -187500.02235174447, -169719.6119689479, 0.0, -187500.02235174447, 0.128, -0.008, 0.986, 192.0, 0.0, 0.0, 0.0, 0.0, 0.0, 0.0, 0.0, 0.0, 0.0, 1.7094213703368084E9, 0.0, 2024-03-02 15:16:10.336
159.0, 0.0, 0.0, -167569.3965040918, -187500.02235174447, -187500.02235174447, -169534.78539404695, 0.0, -187500.02235174447, 0.128, -0.008, 0.986, 192.0, 0.0, 0.0, 0.0, 0.0, 0.0, 0.0, 0.0, 0.0, 0.0, 1.7094213703368134E9, 0.0, 2024-03-02 15:16:10.336
160.0, 0.0, 0.0, -167030.98768365238, -187500.02235174447, -187500.02235174447, -169001.33866087662, 0.0, -187500.02235174447, 0.128, -0.008, 0.986, 192.0, 0.0, 0.0, 0.0, 0.0, 0.0, 0.0, 0.0, 0.0, 0.0, 1.709421370336818E9, 0.0, 2024-03-02 15:16:10.336
161.0, 0.0, 0.0, -167175.6481737671, -187500.02235174447, -187500.02235174447, -169206.6394336986, 0.0, -187500.02235174447, 0.128, -0.008, 0.986, 192.0, 0.0, 0.0, 0.0, 0.0, 0.0, 0.0, 0.0, 0.0, 0.0, 1.7094213703368225E9, 0.0, 2024-03-02 15:16:10.336
162.0, 0.0, 0.0, -167804.24628308372, -187500.02235174447, -187500.02235174447, -169839.6408366729, 0.0, -187500.02235174447, 0.128, -0.008, 0.986, 192.0, 0.0, 0.0, 0.0, 0.0, 0.0, 0.0, 0.0, 0.0, 0.0, 1.7094213703368273E9, 0.0, 2024-03-02 15:16:10.336
163.0, 0.0, 0.0, -167753.03843653662, -187500.02235174447, -187500.02235174447, -169726.22808530668, 0.0, -187500.02235174447, 0.12, -0.01, 0.99, 192.0, 3.0, 192.0, 255.0, 176.0, 30.0, 240.0, 0.0, 0.0, 0.0, 1.7094213703368316E9, 0.0, 2024-03-02 15:16:10.336
164.0, 0.0, 0.0, -167225.0678807578, -187500.02235174447, -187500.02235174447, -169183.55008167628, 0.0, -187500.02235174447, 0.12, -0.01, 0.99, 192.0, 0.0, 0.0, 0.0, 0.0, 0.0, 0.0, 0.0, 0.0, 0.0, 1.7094213703368452E9, 0.0, 2024-03-02 15:16:10.336
165.0, 0.0, 0.0, -167214.65196784164, -187500.02235174447, -187500.02235174447, -169233.95326542298, 0.0, -187500.02235174447, 0.12, -0.01, 0.99, 192.0, 0.0, 0.0, 0.0, 0.0, 0.0, 0.0, 0.0, 0.0, 0.0, 1.7094213703368506E9, 0.0, 2024-03-02 15:16:10.336
166.0, 0.0, 0.0, -167820.85362921402, -187500.02235174447, -187500.02235174447, -169863.11016835098, 0.0, -187500.02235174447, 0.12, -0.01, 0.99, 192.0, 0.0, 0.0, 0.0, 0.0, 0.0, 0.0, 0.0, 0.0, 0.0, 1.709421370336856E9, 0.0, 2024-03-02 15:16:10.336
167.0, 0.0, 0.0, -167943.31883708463, -187500.02235174447, -187500.02235174447, -169927.0585092376, 0.0, -187500.02235174447, 0.12, -0.01, 0.99, 192.0, 0.0, 0.0, 0.0, 0.0, 0.0, 0.0, 0.0, 0.0, 0.0, 1.709421370336861E9, 0.0, 2024-03-02 15:16:10.336
168.0, 0.0, 0.0, -167386.000440836, -187500.02235174447, -187500.02235174447, -169331.8762578817, 0.0, -187500.02235174447, 0.12, -0.01, 0.99, 192.0, 0.0, 0.0, 0.0, 0.0, 0.0, 0.0, 0.0, 0.0, 0.0, 1.7094213703368654E9, 0.0, 2024-03-02 15:16:10.336
169.0, 0.0, 0.0, -167194.98243272095, -187500.02235174447, -187500.02235174447, -169202.61611969664, 0.0, -187500.02235174447, 0.12, -0.01, 0.99, 192.0, 0.0, 0.0, 0.0, 0.0, 0.0, 0.0, 0.0, 0.0, 0.0, 1.7094213703368702E9, 0.0, 2024-03-02 15:16:10.336
170.0, 0.0, 0.0, -167755.2959627266, -187500.02235174447, -187500.02235174447, -169799.69826933127, 0.0, -187500.02235174447, 0.12, -0.01, 0.99, 192.0, 0.0, 0.0, 0.0, 0.0, 0.0, 0.0, 0.0, 0.0, 0.0, 1.7094213703368747E9, 0.0, 2024-03-02 15:16:10.336
171.0, 0.0, 0.0, -168028.47898345935, -187500.02235174447, -187500.02235174447, -170023.97567319582, 0.0, -187500.02235174447, 0.12, -0.01, 0.99, 192.0, 0.0, 0.0, 0.0, 0.0, 0.0, 0.0, 0.0, 0.0, 0.0, 1.7094213703368795E9, 0.0, 2024-03-02 15:16:10.336
172.0, 0.0, 0.0, -167529.61039896138, -187500.02235174447, -187500.02235174447, -169486.50562602349, 0.0, -187500.02235174447, 0.12, -0.01, 0.99, 192.0, 0.0, 0.0, 0.0, 0.0, 0.0, 0.0, 0.0, 0.0, 0.0, 1.7094213703368845E9, 0.0, 2024-03-02 15:16:10.336
173.0, 0.0, 0.0, -167207.61116833822, -187500.02235174447, -187500.02235174447, -169212.45088725697, 0.0, -187500.02235174447, 0.116, -0.012, 0.994, 192.0, 3.0, 160.0, 255.0, 160.0, 31.0, 16.0, 0.0, 0.0, 0.0, 1.7094213703368893E9, 0.0, 2024-03-02 15:16:10.336
174.0, 0.0, 0.0, -167701.04827893357, -187500.02235174447, -187500.02235174447, -169754.61480076492, 0.0, -187500.02235174447, 0.116, -0.012, 0.994, 192.0, 0.0, 0.0, 0.0, 0.0, 0.0, 0.0, 0.0, 0.0, 0.0, 1.7094213703368938E9, 0.0, 2024-03-02 15:16:10.336
175.0, 0.0, 0.0, -168147.3902639616, -187500.02235174447, -187500.02235174447, -170165.97630572037, 0.0, -187500.02235174447, 0.116, -0.012, 0.994, 192.0, 0.0, 0.0, 0.0, 0.0, 0.0, 0.0, 0.0, 0.0, 0.0, 1.7094213703368983E9, 0.0, 2024-03-02 15:16:10.336
176.0, 0.0, 0.0, -167796.1996550798, -187500.02235174447, -187500.02235174447, -169760.40390257884, 0.0, -187500.02235174447, 0.116, -0.012, 0.994, 192.0, 0.0, 0.0, 0.0, 0.0, 0.0, 0.0, 0.0, 0.0, 0.0, 1.709421370336903E9, 0.0, 2024-03-02 15:16:10.336
177.0, 0.0, 0.0, -167445.34432236486, -187500.02235174447, -187500.02235174447, -169446.2948377484, 0.0, -187500.02235174447, 0.116, -0.012, 0.994, 192.0, 0.0, 0.0, 0.0, 0.0, 0.0, 0.0, 0.0, 0.0, 0.0, 1.7094213703369076E9, 0.0, 2024-03-02 15:16:10.336
178.0, 0.0, 0.0, -167848.32392314958, -187500.02235174447, -187500.02235174447, -169903.74563977073, 0.0, -187500.02235174447, 0.116, -0.012, 0.994, 192.0, 0.0, 0.0, 0.0, 0.0, 0.0, 0.0, 0.0, 0.0, 0.0, 1.7094213703369122E9, 0.0, 2024-03-02 15:16:10.336
179.0, 0.0, 0.0, -168364.2021851781, -187500.02235174447, -187500.02235174447, -170397.1603986216, 0.0, -187500.02235174447, 0.116, -0.012, 0.994, 192.0, 0.0, 0.0, 0.0, 0.0, 0.0, 0.0, 0.0, 0.0, 0.0, 1.7094213703369172E9, 0.0, 2024-03-02 15:16:10.336
180.0, 0.0, 0.0, -168068.77917871228, -187500.02235174447, -187500.02235174447, -170036.26913264624, 0.0, -187500.02235174447, 0.116, -0.012, 0.994, 192.0, 0.0, 0.0, 0.0, 0.0, 0.0, 0.0, 0.0, 0.0, 0.0, 1.709421370336922E9, 0.0, 2024-03-02 15:16:10.336
181.0, 0.0, 0.0, -167596.0174317381, -187500.02235174447, -187500.02235174447, -169578.99714457957, 0.0, -187500.02235174447, 0.116, -0.012, 0.994, 192.0, 0.0, 0.0, 0.0, 0.0, 0.0, 0.0, 0.0, 0.0, 0.0, 1.7094213703369265E9, 0.0, 2024-03-02 15:16:10.336
182.0, 0.0, 0.0, -167812.24820759872, -187500.02235174447, -187500.02235174447, -169851.7778339121, 0.0, -187500.02235174447, 0.116, -0.012, 0.994, 192.0, 0.0, 0.0, 0.0, 0.0, 0.0, 0.0, 0.0, 0.0, 0.0, 1.7094213703369312E9, 0.0, 2024-03-02 15:16:10.336
183.0, 0.0, 0.0, -168409.82209561137, -187500.02235174447, -187500.02235174447, -170447.78709981288, 0.0, -187500.02235174447, 0.11800000000000001, -0.012, 0.994, 192.0, 3.0, 176.0, 255.0, 160.0, 31.0, 16.0, 0.0, 0.0, 0.0, 1.7094213703369358E9, 0.0, 2024-03-02 15:16:10.336
184.0, 0.0, 0.0, -168274.43757944557, -187500.02235174447, -187500.02235174447, -170244.09565259167, 0.0, -187500.02235174447, 0.11800000000000001, -0.012, 0.994, 192.0, 0.0, 0.0, 0.0, 0.0, 0.0, 0.0, 0.0, 0.0, 0.0, 1.7094213703369403E9, 0.0, 2024-03-02 15:16:10.336
185.0, 0.0, 0.0, -167687.50312179365, -187500.02235174447, -187500.02235174447, -169653.3837501268, 0.0, -187500.02235174447, 0.11800000000000001, -0.012, 0.994, 192.0, 0.0, 0.0, 0.0, 0.0, 0.0, 0.0, 0.0, 0.0, 0.0, 1.7094213703369453E9, 0.0, 2024-03-02 15:16:10.336
186.0, 0.0, 0.0, -167749.41745393485, -187500.02235174447, -187500.02235174447, -169776.6759725423, 0.0, -187500.02235174447, 0.11800000000000001, -0.012, 0.994, 192.0, 0.0, 0.0, 0.0, 0.0, 0.0, 0.0, 0.0, 0.0, 0.0, 1.70942137033695E9, 0.0, 2024-03-02 15:16:10.336
187.0, 0.0, 0.0, -168309.55216998485, -187500.02235174447, -187500.02235174447, -170351.965171333, 0.0, -187500.02235174447, 0.11800000000000001, -0.012, 0.994, 192.0, 0.0, 0.0, 0.0, 0.0, 0.0, 0.0, 0.0, 0.0, 0.0, 1.7094213703369546E9, 0.0, 2024-03-02 15:16:10.336
188.0, 0.0, 0.0, -168313.70959445354, -187500.02235174447, -187500.02235174447, -170307.50755161137, 0.0, -187500.02235174447, 0.11800000000000001, -0.012, 0.994, 192.0, 0.0, 0.0, 0.0, 0.0, 0.0, 0.0, 0.0, 0.0, 0.0, 1.7094213703369591E9, 0.0, 2024-03-02 15:16:10.336
189.0, 0.0, 0.0, -167716.2251134187, -187500.02235174447, -187500.02235174447, -169686.44198017623, 0.0, -187500.02235174447, 0.11800000000000001, -0.012, 0.994, 192.0, 0.0, 0.0, 0.0, 0.0, 0.0, 0.0, 0.0, 0.0, 0.0, 1.709421370336964E9, 0.0, 2024-03-02 15:16:10.336
190.0, 0.0, 0.0, -167586.83086476696, -187500.02235174447, -187500.02235174447, -169605.41690652573, 0.0, -187500.02235174447, 0.11800000000000001, -0.012, 0.994, 192.0, 0.0, 0.0, 0.0, 0.0, 0.0, 0.0, 0.0, 0.0, 0.0, 1.709421370336969E9, 0.0, 2024-03-02 15:16:10.336
191.0, 0.0, 0.0, -168130.1347172421, -187500.02235174447, -187500.02235174447, -170181.98015475037, 0.0, -187500.02235174447, 0.11800000000000001, -0.012, 0.994, 192.0, 0.0, 0.0, 0.0, 0.0, 0.0, 0.0, 0.0, 0.0, 0.0, 1.7094213703369732E9, 0.0, 2024-03-02 15:16:10.336
192.0, 0.0, 0.0, -168325.39955680366, -187500.02235174447, -187500.02235174447, -170322.1479442296, 0.0, -187500.02235174447, 0.11800000000000001, -0.012, 0.994, 192.0, 0.0, 0.0, 0.0, 0.0, 0.0, 0.0, 0.0, 0.0, 0.0, 1.7094213703369784E9, 0.0, 2024-03-02 15:16:10.336
193.0, 0.0, 0.0, -167769.22109952226, -187500.02235174447, -187500.02235174447, -169730.9666551312, 0.0, -187500.02235174447, 0.12, -0.016, 0.998, 192.0, 3.0, 192.0, 255.0, 128.0, 31.0, 48.0, 0.0, 0.0, 0.0, 1.7094213703369827E9, 0.0, 2024-03-02 15:16:10.336
194.0, 0.0, 0.0, -167555.02433240705, -187500.02235174447, -187500.02235174447, -169573.83389161038, 0.0, -187500.02235174447, 0.12, -0.016, 0.998, 192.0, 0.0, 0.0, 0.0, 0.0, 0.0, 0.0, 0.0, 0.0, 0.0, 1.7094213703369875E9, 0.0, 2024-03-02 15:16:10.336
195.0, 0.0, 0.0, -168099.06579244923, -187500.02235174447, -187500.02235174447, -170163.94229697494, 0.0, -187500.02235174447, 0.12, -0.016, 0.998, 192.0, 0.0, 0.0, 0.0, 0.0, 0.0, 0.0, 0.0, 0.0, 0.0, 1.709421370336992E9, 0.0, 2024-03-02 15:16:10.336
196.0, 0.0, 0.0, -168451.39634029823, -187500.02235174447, -187500.02235174447, -170474.20686175907, 0.0, -187500.02235174447, 0.12, -0.016, 0.998, 192.0, 0.0, 0.0, 0.0, 0.0, 0.0, 0.0, 0.0, 0.0, 0.0, 1.7094213703369968E9, 0.0, 2024-03-02 15:16:10.336
197.0, 0.0, 0.0, -168012.22926524034, -187500.02235174447, -187500.02235174447, -169987.18470182238, 0.0, -187500.02235174447, 0.12, -0.016, 0.998, 192.0, 0.0, 0.0, 0.0, 0.0, 0.0, 0.0, 0.0, 0.0, 0.0, 1.7094213703370013E9, 0.0, 2024-03-02 15:16:10.337
198.0, 0.0, 0.0, -167687.32430783802, -187500.02235174447, -187500.02235174447, -169701.68586989475, 0.0, -187500.02235174447, 0.12, -0.016, 0.998, 192.0, 0.0, 0.0, 0.0, 0.0, 0.0, 0.0, 0.0, 0.0, 0.0, 1.7094213703370063E9, 0.0, 2024-03-02 15:16:10.337
199.0, 0.0, 0.0, -168118.44475489197, -187500.02235174447, -187500.02235174447, -170180.97432624988, 0.0, -187500.02235174447, 0.12, -0.016, 0.998, 192.0, 0.0, 0.0, 0.0, 0.0, 0.0, 0.0, 0.0, 0.0, 0.0, 1.709421370337011E9, 0.0, 2024-03-02 15:16:10.337
200.0, 0.0, 0.0, -168579.3377255604, -187500.02235174447, -187500.02235174447, -170613.68174716018, 0.0, -187500.02235174447, 0.12, -0.016, 0.998, 192.0, 0.0, 0.0, 0.0, 0.0, 0.0, 0.0, 0.0, 0.0, 0.0, 1.7094213703370156E9, 0.0, 2024-03-02 15:16:10.337
201.0, 0.0, 0.0, -168235.4561371155, -187500.02235174447, -187500.02235174447, -170209.5845591527, 0.0, -187500.02235174447, 0.12, -0.016, 0.998, 192.0, 0.0, 0.0, 0.0, 0.0, 0.0, 0.0, 0.0, 0.0, 0.0, 1.7094213703370204E9, 0.0, 2024-03-02 15:16:10.337
202.0, 0.0, 0.0, -167752.5019946697, -187500.02235174447, -187500.02235174447, -169743.10365237042, 0.0, -187500.02235174447, 0.12, -0.016, 0.998, 192.0, 0.0, 0.0, 0.0, 0.0, 0.0, 0.0, 0.0, 0.0, 0.0, 1.7094213703370247E9, 0.0, 2024-03-02 15:16:10.337
203.0, 0.0, 0.0, -168007.5130471603, -187500.02235174447, -187500.02235174447, -170055.40222589998, 0.0, -187500.02235174447, 0.12, -0.016, 0.998, 192.0, 0.0, 0.0, 0.0, 0.0, 0.0, 0.0, 0.0, 0.0, 0.0, 1.7094213703370297E9, 0.0, 2024-03-02 15:16:10.337
204.0, 0.0, 0.0, -168472.1164074083, -187500.02235174447, -187500.02235174447, -170515.69169946812, 0.0, -187500.02235174447, 0.11800000000000001, -0.012, 0.988, 192.0, 3.0, 176.0, 255.0, 160.0, 30.0, 224.0, 0.0, 0.0, 0.0, 1.7094213703370345E9, 0.0, 2024-03-02 15:16:10.337
205.0, 0.0, 0.0, -168252.84579430174, -187500.02235174447, -187500.02235174447, -170234.55145770925, 0.0, -187500.02235174447, 0.11800000000000001, -0.012, 0.988, 192.0, 0.0, 0.0, 0.0, 0.0, 0.0, 0.0, 0.0, 0.0, 0.0, 1.7094213703370397E9, 0.0, 2024-03-02 15:16:10.337
206.0, 0.0, 0.0, -167726.26104667917, -187500.02235174447, -187500.02235174447, -169718.18145730277, 0.0, -187500.02235174447, 0.11800000000000001, -0.012, 0.988, 192.0, 0.0, 0.0, 0.0, 0.0, 0.0, 0.0, 0.0, 0.0, 0.0, 1.7094213703370445E9, 0.0, 2024-03-02 15:16:10.337
207.0, 0.0, 0.0, -167839.58439106756, -187500.02235174447, -187500.02235174447, -169891.40747683137, 0.0, -187500.02235174447, 0.11800000000000001, -0.012, 0.988, 192.0, 0.0, 0.0, 0.0, 0.0, 0.0, 0.0, 0.0, 0.0, 0.0, 1.7094213703370492E9, 0.0, 2024-03-02 15:16:10.337
208.0, 0.0, 0.0, -168431.54799122192, -187500.02235174447, -187500.02235174447, -170490.1883590446, 0.0, -187500.02235174447, 0.11800000000000001, -0.012, 0.988, 192.0, 0.0, 0.0, 0.0, 0.0, 0.0, 0.0, 0.0, 0.0, 0.0, 1.7094213703370538E9, 0.0, 2024-03-02 15:16:10.337
209.0, 0.0, 0.0, -168368.3372579023, -187500.02235174447, -187500.02235174447, -170356.1225958017, 0.0, -187500.02235174447, 0.11800000000000001, -0.012, 0.988, 192.0, 0.0, 0.0, 0.0, 0.0, 0.0, 0.0, 0.0, 0.0, 0.0, 1.7094213703370583E9, 0.0, 2024-03-02 15:16:10.337
210.0, 0.0, 0.0, -167813.58931226603, -187500.02235174447, -187500.02235174447, -169786.55544359155, 0.0, -187500.02235174447, 0.11800000000000001, -0.012, 0.988, 192.0, 0.0, 0.0, 0.0, 0.0, 0.0, 0.0, 0.0, 0.0, 0.0, 1.7094213703370633E9, 0.0, 2024-03-02 15:16:10.337
211.0, 0.0, 0.0, -167795.84202716852, -187500.02235174447, -187500.02235174447, -169832.84590635847, 0.0, -187500.02235174447, 0.11800000000000001, -0.012, 0.988, 192.0, 0.0, 0.0, 0.0, 0.0, 0.0, 0.0, 0.0, 0.0, 0.0, 1.7094213703370676E9, 0.0, 2024-03-02 15:16:10.337
212.0, 0.0, 0.0, -168375.53451961692, -187500.02235174447, -187500.02235174447, -170433.5266868504, 0.0, -187500.02235174447, 0.11800000000000001, -0.012, 0.988, 192.0, 0.0, 0.0, 0.0, 0.0, 0.0, 0.0, 0.0, 0.0, 0.0, 1.7094213703370728E9, 0.0, 2024-03-02 15:16:10.337
213.0, 0.0, 0.0, -168441.91920064916, -187500.02235174447, -187500.02235174447, -170438.64523633066, 0.0, -187500.02235174447, 0.11800000000000001, -0.012, 0.988, 192.0, 0.0, 0.0, 0.0, 0.0, 0.0, 0.0, 0.0, 0.0, 0.0, 1.7094213703370776E9, 0.0, 2024-03-02 15:16:10.337
