%OpenBCI Raw EXG Data
%Number of channels = 8
%Sample Rate = 250 Hz
%Board = OpenBCI_GUI$BoardCytonSerial
Sample Index, EXG Channel 0, EXG Channel 1, EXG Channel 2, EXG Channel 3, EXG Channel 4, EXG Channel 5, EXG Channel 6, EXG Channel 7, Accel Channel 0, Accel Channel 1, Accel Channel 2, Other, Other, Other, Other, Other, Other, Other, Analog Channel 0, Analog Channel 1, Analog Channel 2, Timestamp, Other, Timestamp (Formatted)
0.0, 0.0, 0.0, 0.0, 0.0, 0.0, 0.0, 0.0, 0.0, 0.108, 0.008, 0.99, 192.0, 3.0, 96.0, 0.0, 64.0, 30.0, 240.0, 0.0, 0.0, 0.0, 1.7094209341779013E9, 0.0, 2024-03-02 15:08:54.177
1.0, 0.0, 0.0, -145486.27531364863, 0.0, -187500.02235174447, -147330.7859695895, -187500.02235174447, -187500.02235174447, 0.108, 0.008, 0.99, 192.0, 0.0, 0.0, 0.0, 0.0, 0.0, 0.0, 0.0, 0.0, 0.0, 1.7094209346635857E9, 0.0, 2024-03-02 15:08:54.663
2.0, 0.0, 0.0, -146113.59937353127, 0.0, -187500.02235174447, -147982.27226522833, -187500.02235174447, -187500.02235174447, 0.108, 0.008, 0.99, 192.0, 0.0, 0.0, 0.0, 0.0, 0.0, 0.0, 0.0, 0.0, 0.0, 1.7094209346636221E9, 0.0, 2024-03-02 15:08:54.663
3.0, 0.0, 0.0, -145999.4043111091, 0.0, -187500.02235174447, -147798.56327755016, -187500.02235174447, -187500.02235174447, 0.108, 0.008, 0.99, 192.0, 0.0, 0.0, 0.0, 0.0, 0.0, 0.0, 0.0, 0.0, 0.0, 1.7094209346636307E9, 0.0, 2024-03-02 15:08:54.663
4.0, 0.0, 0.0, -145383.88197229887, 0.0, -187500.02235174447, -147161.60561580726, -187500.02235174447, -187500.02235174447, 0.108, 0.008, 0.99, 192.0, 0.0, 0.0, 0.0, 0.0, 0.0, 0.0, 0.0, 0.0, 0.0, 1.709420934663658E9, 0.0, 2024-03-02 15:08:54.663
5.0, 0.0, 0.0, -145388.6205421234, 0.0, -187500.02235174447, -147230.87367187426, -187500.02235174447, -187500.02235174447, 0.108, 0.008, 0.99, 192.0, 0.0, 0.0, 0.0, 0.0, 0.0, 0.0, 0.0, 0.0, 0.0, 1.7094209346636796E9, 0.0, 2024-03-02 15:08:54.663
6.0, 0.0, 0.0, -146017.88920377367, 0.0, -187500.02235174447, -147888.12671758255, -187500.02235174447, -187500.02235174447, 0.108, 0.008, 0.99, 192.0, 0.0, 0.0, 0.0, 0.0, 0.0, 0.0, 0.0, 0.0, 0.0, 1.7094209346637056E9, 0.0, 2024-03-02 15:08:54.663
7.0, 0.0, 0.0, -146080.89877139317, 0.0, -187500.02235174447, -147902.70005496743, -187500.02235174447, -187500.02235174447, 0.108, 0.008, 0.99, 192.0, 0.0, 0.0, 0.0, 0.0, 0.0, 0.0, 0.0, 0.0, 0.0, 1.7094209346637316E9, 0.0, 2024-03-02 15:08:54.663
8.0, 0.0, 0.0, -145495.41717713085, 0.0, -187500.02235174447, -147281.83564923235, -187500.02235174447, -187500.02235174447, 0.108, -0.002, 0.992, 192.0, 3.0, 96.0, 255.0, 240.0, 31.0, 0.0, 0.0, 0.0, 0.0, 1.709420934663758E9, 0.0, 2024-03-02 15:08:54.663
9.0, 0.0, 0.0, -145311.68583770824, 0.0, -187500.02235174447, -147131.29665032585, -187500.02235174447, -187500.02235174447, 0.108, -0.002, 0.992, 192.0, 0.0, 0.0, 0.0, 0.0, 0.0, 0.0, 0.0, 0.0, 0.0, 1.7094209346637845E9, 0.0, 2024-03-02 15:08:54.663
10.0, 0.0, 0.0, -145883.4881643639, 0.0, -187500.02235174447, -147739.4205617214, -187500.02235174447, -187500.02235174447, 0.108, -0.002, 0.992, 192.0, 0.0, 0.0, 0.0, 0.0, 0.0, 0.0, 0.0, 0.0, 0.0, 1.7094209346638107E9, 0.0, 2024-03-02 15:08:54.663
11.0, 0.0, 0.0, -146095.3827018002, 0.0, -187500.02235174447, -147926.72818025688, -187500.02235174447, -187500.02235174447, 0.108, -0.002, 0.992, 192.0, 0.0, 0.0, 0.0, 0.0, 0.0, 0.0, 0.0, 0.0, 0.0, 1.7094209346638372E9, 0.0, 2024-03-02 15:08:54.663
12.0, 0.0, 0.0, -145527.8942618244, 0.0, -187500.02235174447, -147329.24369922208, -187500.02235174447, -187500.02235174447, 0.108, -0.002, 0.992, 192.0, 0.0, 0.0, 0.0, 0.0, 0.0, 0.0, 0.0, 0.0, 0.0, 1.7094209346638637E9, 0.0, 2024-03-02 15:08:54.663
13.0, 0.0, 0.0, -145192.59574325036, 0.0, -187500.02235174447, -147034.5583003233, -187500.02235174447, -187500.02235174447, 0.108, -0.002, 0.992, 192.0, 0.0, 0.0, 0.0, 0.0, 0.0, 0.0, 0.0, 0.0, 0.0, 1.7094209346638756E9, 0.0, 2024-03-02 15:08:54.663
14.0, 0.0, 0.0, -145724.7907787312, 0.0, -187500.02235174447, -147611.1886037813, -187500.02235174447, -187500.02235174447, 0.108, -0.002, 0.992, 192.0, 0.0, 0.0, 0.0, 0.0, 0.0, 0.0, 0.0, 0.0, 0.0, 1.7094209346638825E9, 0.0, 2024-03-02 15:08:54.663
15.0, 0.0, 0.0, -146059.93283509408, 0.0, -187500.02235174447, -147908.64561899254, -187500.02235174447, -187500.02235174447, 0.108, -0.002, 0.992, 192.0, 0.0, 0.0, 0.0, 0.0, 0.0, 0.0, 0.0, 0.0, 0.0, 1.7094209346638892E9, 0.0, 2024-03-02 15:08:54.663
16.0, 0.0, 0.0, -145580.0632333831, 0.0, -187500.02235174447, -147371.42144100924, -187500.02235174447, -187500.02235174447, 0.108, -0.002, 0.992, 192.0, 0.0, 0.0, 0.0, 0.0, 0.0, 0.0, 0.0, 0.0, 0.0, 1.709420934663896E9, 0.0, 2024-03-02 15:08:54.663
17.0, 0.0, 0.0, -145144.45008569362, 0.0, -187500.02235174447, -146965.46905821195, -187500.02235174447, -187500.02235174447, 0.108, -0.002, 0.992, 192.0, 0.0, 0.0, 0.0, 0.0, 0.0, 0.0, 0.0, 0.0, 0.0, 1.7094209346639032E9, 0.0, 2024-03-02 15:08:54.663
18.0, 0.0, 0.0, -145562.62887270795, 0.0, -187500.02235174447, -147445.13749422284, -187500.02235174447, -187500.02235174447, 0.11, -0.008, 0.992, 192.0, 3.0, 112.0, 255.0, 192.0, 31.0, 0.0, 0.0, 0.0, 0.0, 1.7094209346639102E9, 0.0, 2024-03-02 15:08:54.663
19.0, 0.0, 0.0, -146040.84444532925, 0.0, -187500.02235174447, -147898.74379619883, -187500.02235174447, -187500.02235174447, 0.11, -0.008, 0.992, 192.0, 0.0, 0.0, 0.0, 0.0, 0.0, 0.0, 0.0, 0.0, 0.0, 1.7094209346639168E9, 0.0, 2024-03-02 15:08:54.663
20.0, 0.0, 0.0, -145649.30893770565, 0.0, -187500.02235174447, -147434.78863654003, -187500.02235174447, -187500.02235174447, 0.11, -0.008, 0.992, 192.0, 0.0, 0.0, 0.0, 0.0, 0.0, 0.0, 0.0, 0.0, 0.0, 1.7094209346639338E9, 0.0, 2024-03-02 15:08:54.663
21.0, 0.0, 0.0, -145111.3024486664, 0.0, -187500.02235174447, -146915.0882262097, -187500.02235174447, -187500.02235174447, 0.11, -0.008, 0.992, 192.0, 0.0, 0.0, 0.0, 0.0, 0.0, 0.0, 0.0, 0.0, 0.0, 1.709420934663941E9, 0.0, 2024-03-02 15:08:54.663
22.0, 0.0, 0.0, -145394.74492010416, 0.0, -187500.02235174447, -147265.78709671344, -187500.02235174447, -187500.02235174447, 0.11, -0.008, 0.992, 192.0, 0.0, 0.0, 0.0, 0.0, 0.0, 0.0, 0.0, 0.0, 0.0, 1.7094209346639476E9, 0.0, 2024-03-02 15:08:54.663
23.0, 0.0, 0.0, -146013.8658897717, 0.0, -187500.02235174447, -147882.29291227972, -187500.02235174447, -187500.02235174447, 0.11, -0.008, 0.992, 192.0, 0.0, 0.0, 0.0, 0.0, 0.0, 0.0, 0.0, 0.0, 0.0, 1.7094209346639588E9, 0.0, 2024-03-02 15:08:54.663
24.0, 0.0, 0.0, -145793.83531735366, 0.0, -187500.02235174447, -147607.20999326825, -187500.02235174447, -187500.02235174447, 0.11, -0.008, 0.992, 192.0, 0.0, 0.0, 0.0, 0.0, 0.0, 0.0, 0.0, 0.0, 0.0, 1.7094209346639657E9, 0.0, 2024-03-02 15:08:54.663
25.0, 0.0, 0.0, -145148.58515841785, 0.0, -187500.02235174447, -146960.75284013187, -187500.02235174447, -187500.02235174447, 0.11, -0.008, 0.992, 192.0, 0.0, 0.0, 0.0, 0.0, 0.0, 0.0, 0.0, 0.0, 0.0, 1.7094209346639724E9, 0.0, 2024-03-02 15:08:54.663
26.0, 0.0, 0.0, -145254.75594458057, 0.0, -187500.02235174447, -147110.93421112708, -187500.02235174447, -187500.02235174447, 0.11, -0.008, 0.992, 192.0, 0.0, 0.0, 0.0, 0.0, 0.0, 0.0, 0.0, 0.0, 0.0, 1.7094209346639793E9, 0.0, 2024-03-02 15:08:54.663
27.0, 0.0, 0.0, -145920.94968807098, 0.0, -187500.02235174447, -147790.91898094642, -187500.02235174447, -187500.02235174447, 0.11, -0.008, 0.992, 192.0, 0.0, 0.0, 0.0, 0.0, 0.0, 0.0, 0.0, 0.0, 0.0, 1.709420934663986E9, 0.0, 2024-03-02 15:08:54.663
28.0, 0.0, 0.0, -145862.41046934255, 0.0, -187500.02235174447, -147698.71803506828, -187500.02235174447, -187500.02235174447, 0.116, -0.002, 0.988, 192.0, 3.0, 160.0, 255.0, 240.0, 30.0, 224.0, 0.0, 0.0, 0.0, 1.709420934663993E9, 0.0, 2024-03-02 15:08:54.663
29.0, 0.0, 0.0, -145212.8240719824, 0.0, -187500.02235174447, -147031.943146222, -187500.02235174447, -187500.02235174447, 0.116, -0.002, 0.988, 192.0, 0.0, 0.0, 0.0, 0.0, 0.0, 0.0, 0.0, 0.0, 0.0, 1.7094209346639996E9, 0.0, 2024-03-02 15:08:54.663
30.0, 0.0, 0.0, -145157.81642887788, 0.0, -187500.02235174447, -147018.33093384875, -187500.02235174447, -187500.02235174447, 0.116, -0.002, 0.988, 192.0, 0.0, 0.0, 0.0, 0.0, 0.0, 0.0, 0.0, 0.0, 0.0, 1.7094209346640067E9, 0.0, 2024-03-02 15:08:54.664
31.0, 0.0, 0.0, -145772.71291884338, 0.0, -187500.02235174447, -147654.01454615768, -187500.02235174447, -187500.02235174447, 0.116, -0.002, 0.988, 192.0, 0.0, 0.0, 0.0, 0.0, 0.0, 0.0, 0.0, 0.0, 0.0, 1.7094209346640136E9, 0.0, 2024-03-02 15:08:54.664
32.0, 0.0, 0.0, -145909.66205712105, 0.0, -187500.02235174447, -147732.80444536262, -187500.02235174447, -187500.02235174447, 0.116, -0.002, 0.988, 192.0, 0.0, 0.0, 0.0, 0.0, 0.0, 0.0, 0.0, 0.0, 0.0, 1.7094209346640203E9, 0.0, 2024-03-02 15:08:54.664
33.0, 0.0, 0.0, -145274.96192156815, 0.0, -187500.02235174447, -147072.08687926375, -187500.02235174447, -187500.02235174447, 0.116, -0.002, 0.988, 192.0, 0.0, 0.0, 0.0, 0.0, 0.0, 0.0, 0.0, 0.0, 0.0, 1.709420934664027E9, 0.0, 2024-03-02 15:08:54.664
34.0, 0.0, 0.0, -145015.4805201865, 0.0, -187500.02235174447, -146865.17678084096, -187500.02235174447, -187500.02235174447, 0.116, -0.002, 0.988, 192.0, 0.0, 0.0, 0.0, 0.0, 0.0, 0.0, 0.0, 0.0, 0.0, 1.709420934664034E9, 0.0, 2024-03-02 15:08:54.664
35.0, 0.0, 0.0, -145611.623896554, 0.0, -187500.02235174447, -147505.04016936306, -187500.02235174447, -187500.02235174447, 0.116, -0.002, 0.988, 192.0, 0.0, 0.0, 0.0, 0.0, 0.0, 0.0, 0.0, 0.0, 0.0, 1.7094209346640408E9, 0.0, 2024-03-02 15:08:54.664
36.0, 0.0, 0.0, -145865.80793449975, 0.0, -187500.02235174447, -147713.00079977524, -187500.02235174447, -187500.02235174447, 0.116, -0.002, 0.988, 192.0, 0.0, 0.0, 0.0, 0.0, 0.0, 0.0, 0.0, 0.0, 0.0, 1.709420934664048E9, 0.0, 2024-03-02 15:08:54.664
37.0, 0.0, 0.0, -145263.1825522402, 0.0, -187500.02235174447, -147074.29970196483, -187500.02235174447, -187500.02235174447, 0.116, -0.002, 0.988, 192.0, 0.0, 0.0, 0.0, 0.0, 0.0, 0.0, 0.0, 0.0, 0.0, 1.7094209346640549E9, 0.0, 2024-03-02 15:08:54.664
38.0, 0.0, 0.0, -144861.83462880072, 0.0, -187500.02235174447, -146724.20432856135, -187500.02235174447, -187500.02235174447, 0.116, 0.0, 0.986, 192.0, 3.0, 160.0, 0.0, 0.0, 30.0, 208.0, 0.0, 0.0, 0.0, 1.7094209346640615E9, 0.0, 2024-03-02 15:08:54.664
39.0, 0.0, 0.0, -145362.58075983296, 0.0, -187500.02235174447, -147257.6063582428, -187500.02235174447, -187500.02235174447, 0.116, 0.0, 0.986, 192.0, 0.0, 0.0, 0.0, 0.0, 0.0, 0.0, 0.0, 0.0, 0.0, 1.7094209346640685E9, 0.0, 2024-03-02 15:08:54.664
40.0, 0.0, 0.0, -145795.44464295445, 0.0, -187500.02235174447, -147644.78327569764, -187500.02235174447, -187500.02235174447, 0.116, 0.0, 0.986, 192.0, 0.0, 0.0, 0.0, 0.0, 0.0, 0.0, 0.0, 0.0, 0.0, 1.7094209346640751E9, 0.0, 2024-03-02 15:08:54.664
41.0, 0.0, 0.0, -145329.63428850583, 0.0, -187500.02235174447, -147116.29862979637, -187500.02235174447, -187500.02235174447, 0.116, 0.0, 0.986, 192.0, 0.0, 0.0, 0.0, 0.0, 0.0, 0.0, 0.0, 0.0, 0.0, 1.709420934664082E9, 0.0, 2024-03-02 15:08:54.664
42.0, 0.0, 0.0, -144825.7365615054, 0.0, -187500.02235174447, -146642.68751653284, -187500.02235174447, -187500.02235174447, 0.116, 0.0, 0.986, 192.0, 0.0, 0.0, 0.0, 0.0, 0.0, 0.0, 0.0, 0.0, 0.0, 1.709420934664089E9, 0.0, 2024-03-02 15:08:54.664
43.0, 0.0, 0.0, -145167.29356852695, 0.0, -187500.02235174447, -147044.0577917168, -187500.02235174447, -187500.02235174447, 0.116, 0.0, 0.986, 192.0, 0.0, 0.0, 0.0, 0.0, 0.0, 0.0, 0.0, 0.0, 0.0, 1.7094209346640964E9, 0.0, 2024-03-02 15:08:54.664
44.0, 0.0, 0.0, -145668.6879001484, 0.0, -187500.02235174447, -147524.28502133908, -187500.02235174447, -187500.02235174447, 0.116, 0.0, 0.986, 192.0, 0.0, 0.0, 0.0, 0.0, 0.0, 0.0, 0.0, 0.0, 0.0, 1.7094209346641047E9, 0.0, 2024-03-02 15:08:54.664
45.0, 0.0, 0.0, -145277.800593114, 0.0, -187500.02235174447, -147086.14612652615, -187500.02235174447, -187500.02235174447, 0.116, 0.0, 0.986, 192.0, 0.0, 0.0, 0.0, 0.0, 0.0, 0.0, 0.0, 0.0, 0.0, 1.7094209346641119E9, 0.0, 2024-03-02 15:08:54.664
46.0, 0.0, 0.0, -144688.76507148327, 0.0, -187500.02235174447, -146502.65383752034, -187500.02235174447, -187500.02235174447, 0.116, 0.0, 0.986, 192.0, 0.0, 0.0, 0.0, 0.0, 0.0, 0.0, 0.0, 0.0, 0.0, 1.7094209346641188E9, 0.0, 2024-03-02 15:08:54.664
47.0, 0.0, 0.0, -144916.5516992273, 0.0, -187500.02235174447, -146794.32175091765, -187500.02235174447, -187500.02235174447, 0.116, 0.0, 0.986, 192.0, 0.0, 0.0, 0.0, 0.0, 0.0, 0.0, 0.0, 0.0, 0.0, 1.709420934664126E9, 0.0, 2024-03-02 15:08:54.664
48.0, 0.0, 0.0, -145537.3937532179, 0.0, -187500.02235174447, -147437.73906680814, -187500.02235174447, -187500.02235174447, 0.116, 0.006, 0.986, 192.0, 3.0, 160.0, 0.0, 48.0, 30.0, 208.0, 0.0, 0.0, 0.0, 1.7094209346641333E9, 0.0, 2024-03-02 15:08:54.664
49.0, 0.0, 0.0, -145335.66925950878, 0.0, -187500.02235174447, -147177.0953747148, -187500.02235174447, -187500.02235174447, 0.116, 0.006, 0.986, 192.0, 0.0, 0.0, 0.0, 0.0, 0.0, 0.0, 0.0, 0.0, 0.0, 1.7094209346641407E9, 0.0, 2024-03-02 15:08:54.664
50.0, 0.0, 0.0, -144655.1033443336, 0.0, -187500.02235174447, -146491.1203373814, -187500.02235174447, -187500.02235174447, 0.116, 0.006, 0.986, 192.0, 0.0, 0.0, 0.0, 0.0, 0.0, 0.0, 0.0, 0.0, 0.0, 1.7094209346641471E9, 0.0, 2024-03-02 15:08:54.664
51.0, 0.0, 0.0, -144691.51433605127, 0.0, -187500.02235174447, -146592.73136767524, -187500.02235174447, -187500.02235174447, 0.116, 0.006, 0.986, 192.0, 0.0, 0.0, 0.0, 0.0, 0.0, 0.0, 0.0, 0.0, 0.0, 1.7094209346641543E9, 0.0, 2024-03-02 15:08:54.664
52.0, 0.0, 0.0, -145387.63706536737, 0.0, -187500.02235174447, -147295.58197207237, -187500.02235174447, -187500.02235174447, 0.116, 0.006, 0.986, 192.0, 0.0, 0.0, 0.0, 0.0, 0.0, 0.0, 0.0, 0.0, 0.0, 1.7094209346641607E9, 0.0, 2024-03-02 15:08:54.664
53.0, 0.0, 0.0, -145363.47482961116, 0.0, -187500.02235174447, -147206.17499425114, -187500.02235174447, -187500.02235174447, 0.116, 0.006, 0.986, 192.0, 0.0, 0.0, 0.0, 0.0, 0.0, 0.0, 0.0, 0.0, 0.0, 1.709420934664168E9, 0.0, 2024-03-02 15:08:54.664
54.0, 0.0, 0.0, -144691.96137094038, 0.0, -187500.02235174447, -146518.1435964279, -187500.02235174447, -187500.02235174447, 0.116, 0.006, 0.986, 192.0, 0.0, 0.0, 0.0, 0.0, 0.0, 0.0, 0.0, 0.0, 0.0, 1.7094209346641748E9, 0.0, 2024-03-02 15:08:54.664
55.0, 0.0, 0.0, -144613.88672755798, 0.0, -187500.02235174447, -146479.2739128201, -187500.02235174447, -187500.02235174447, 0.116, 0.006, 0.986, 192.0, 0.0, 0.0, 0.0, 0.0, 0.0, 0.0, 0.0, 0.0, 0.0, 1.7094209346641817E9, 0.0, 2024-03-02 15:08:54.664
56.0, 0.0, 0.0, -145313.20575633118, 0.0, -187500.02235174447, -147195.31204644585, -187500.02235174447, -187500.02235174447, 0.116, 0.006, 0.986, 192.0, 0.0, 0.0, 0.0, 0.0, 0.0, 0.0, 0.0, 0.0, 0.0, 1.7094209346641889E9, 0.0, 2024-03-02 15:08:54.664
57.0, 0.0, 0.0, -145422.03640008406, 0.0, -187500.02235174447, -147248.73271569406, -187500.02235174447, -187500.02235174447, 0.116, 0.006, 0.986, 192.0, 0.0, 0.0, 0.0, 0.0, 0.0, 0.0, 0.0, 0.0, 0.0, 1.7094209346641958E9, 0.0, 2024-03-02 15:08:54.664
58.0, 0.0, 0.0, -144750.70175536894, 0.0, -187500.02235174447, -146542.84227405098, -187500.02235174447, -187500.02235174447, 0.11800000000000001, 0.006, 0.99, 192.0, 3.0, 176.0, 0.0, 48.0, 30.0, 240.0, 0.0, 0.0, 0.0, 1.7094209346642027E9, 0.0, 2024-03-02 15:08:54.664
59.0, 0.0, 0.0, -144558.2085321198, 0.0, -187500.02235174447, -146401.51219386008, -187500.02235174447, -187500.02235174447, 0.11800000000000001, 0.006, 0.99, 192.0, 0.0, 0.0, 0.0, 0.0, 0.0, 0.0, 0.0, 0.0, 0.0, 1.7094209346642096E9, 0.0, 2024-03-02 15:08:54.664
60.0, 0.0, 0.0, -145147.0652397949, 0.0, -187500.02235174447, -147055.34542266672, -187500.02235174447, -187500.02235174447, 0.11800000000000001, 0.006, 0.99, 192.0, 0.0, 0.0, 0.0, 0.0, 0.0, 0.0, 0.0, 0.0, 0.0, 1.7094209346642165E9, 0.0, 2024-03-02 15:08:54.664
61.0, 0.0, 0.0, -145470.02559542962, 0.0, -187500.02235174447, -147338.09499002635, -187500.02235174447, -187500.02235174447, 0.11800000000000001, 0.006, 0.99, 192.0, 0.0, 0.0, 0.0, 0.0, 0.0, 0.0, 0.0, 0.0, 0.0, 1.709420934664223E9, 0.0, 2024-03-02 15:08:54.664
62.0, 0.0, 0.0, -144946.50303679743, 0.0, -187500.02235174447, -146757.17315163295, -187500.02235174447, -187500.02235174447, 0.11800000000000001, 0.006, 0.99, 192.0, 0.0, 0.0, 0.0, 0.0, 0.0, 0.0, 0.0, 0.0, 0.0, 1.70942093466423E9, 0.0, 2024-03-02 15:08:54.664
63.0, 0.0, 0.0, -144549.49135178226, 0.0, -187500.02235174447, -146388.19055416473, -187500.02235174447, -187500.02235174447, 0.11800000000000001, 0.006, 0.99, 192.0, 0.0, 0.0, 0.0, 0.0, 0.0, 0.0, 0.0, 0.0, 0.0, 1.7094209346642368E9, 0.0, 2024-03-02 15:08:54.664
64.0, 0.0, 0.0, -145045.96829962355, 0.0, -187500.02235174447, -146932.07555199572, -187500.02235174447, -187500.02235174447, 0.11800000000000001, 0.006, 0.99, 192.0, 0.0, 0.0, 0.0, 0.0, 0.0, 0.0, 0.0, 0.0, 0.0, 1.7094209346642437E9, 0.0, 2024-03-02 15:08:54.664
65.0, 0.0, 0.0, -145513.67855235084, 0.0, -187500.02235174447, -147373.6342637103, -187500.02235174447, -187500.02235174447, 0.11800000000000001, 0.006, 0.99, 192.0, 0.0, 0.0, 0.0, 0.0, 0.0, 0.0, 0.0, 0.0, 0.0, 1.7094209346642625E9, 0.0, 2024-03-02 15:08:54.664
66.0, 0.0, 0.0, -145068.23063710102, 0.0, -187500.02235174447, -146874.89978967904, -187500.02235174447, -187500.02235174447, 0.11800000000000001, 0.006, 0.99, 192.0, 0.0, 0.0, 0.0, 0.0, 0.0, 0.0, 0.0, 0.0, 0.0, 1.7094209346642697E9, 0.0, 2024-03-02 15:08:54.664
67.0, 0.0, 0.0, -144586.885820256, 0.0, -187500.02235174447, -146403.94853400573, -187500.02235174447, -187500.02235174447, 0.11800000000000001, 0.006, 0.99, 192.0, 0.0, 0.0, 0.0, 0.0, 0.0, 0.0, 0.0, 0.0, 0.0, 1.7094209346642764E9, 0.0, 2024-03-02 15:08:54.664
68.0, 0.0, 0.0, -144956.29310086885, 0.0, -187500.02235174447, -146832.83380661416, -187500.02235174447, -187500.02235174447, 0.112, 0.004, 0.99, 192.0, 3.0, 128.0, 0.0, 32.0, 30.0, 240.0, 0.0, 0.0, 0.0, 1.7094209346642835E9, 0.0, 2024-03-02 15:08:54.664
69.0, 0.0, 0.0, -145567.79212567714, 0.0, -187500.02235174447, -147440.75655230958, -187500.02235174447, -187500.02235174447, 0.112, 0.004, 0.99, 192.0, 0.0, 0.0, 0.0, 0.0, 0.0, 0.0, 0.0, 0.0, 0.0, 1.7094209346642904E9, 0.0, 2024-03-02 15:08:54.664
70.0, 0.0, 0.0, -145221.0271621975, 0.0, -187500.02235174447, -147013.52530879085, -187500.02235174447, -187500.02235174447, 0.112, 0.004, 0.99, 192.0, 0.0, 0.0, 0.0, 0.0, 0.0, 0.0, 0.0, 0.0, 0.0, 1.709420934664297E9, 0.0, 2024-03-02 15:08:54.664
71.0, 0.0, 0.0, -144608.18703272188, 0.0, -187500.02235174447, -146417.1584149788, -187500.02235174447, -187500.02235174447, 0.112, 0.004, 0.99, 192.0, 0.0, 0.0, 0.0, 0.0, 0.0, 0.0, 0.0, 0.0, 0.0, 1.709420934664304E9, 0.0, 2024-03-02 15:08:54.664
72.0, 0.0, 0.0, -144784.78816566328, 0.0, -187500.02235174447, -146646.55436832362, -187500.02235174447, -187500.02235174447, 0.112, 0.004, 0.99, 192.0, 0.0, 0.0, 0.0, 0.0, 0.0, 0.0, 0.0, 0.0, 0.0, 1.7094209346643107E9, 0.0, 2024-03-02 15:08:54.664
73.0, 0.0, 0.0, -145449.1267143639, 0.0, -187500.02235174447, -147315.43032114868, -187500.02235174447, -187500.02235174447, 0.112, 0.004, 0.99, 192.0, 0.0, 0.0, 0.0, 0.0, 0.0, 0.0, 0.0, 0.0, 0.0, 1.7094209346643174E9, 0.0, 2024-03-02 15:08:54.664
74.0, 0.0, 0.0, -145316.8937941663, 0.0, -187500.02235174447, -147137.35397307324, -187500.02235174447, -187500.02235174447, 0.112, 0.004, 0.99, 192.0, 0.0, 0.0, 0.0, 0.0, 0.0, 0.0, 0.0, 0.0, 0.0, 1.709420934664324E9, 0.0, 2024-03-02 15:08:54.664
75.0, 0.0, 0.0, -144653.62812919953, 0.0, -187500.02235174447, -146476.47994476318, -187500.02235174447, -187500.02235174447, 0.112, 0.004, 0.99, 192.0, 0.0, 0.0, 0.0, 0.0, 0.0, 0.0, 0.0, 0.0, 0.0, 1.7094209346643312E9, 0.0, 2024-03-02 15:08:54.664
76.0, 0.0, 0.0, -144691.22376337336, 0.0, -187500.02235174447, -146565.9539778178, -187500.02235174447, -187500.02235174447, 0.112, 0.004, 0.99, 192.0, 0.0, 0.0, 0.0, 0.0, 0.0, 0.0, 0.0, 0.0, 0.0, 1.709420934664338E9, 0.0, 2024-03-02 15:08:54.664
77.0, 0.0, 0.0, -145400.4222631958, 0.0, -187500.02235174447, -147282.39444284374, -187500.02235174447, -187500.02235174447, 0.112, 0.004, 0.99, 192.0, 0.0, 0.0, 0.0, 0.0, 0.0, 0.0, 0.0, 0.0, 0.0, 1.7094209346643445E9, 0.0, 2024-03-02 15:08:54.664
78.0, 0.0, 0.0, -145424.38333325187, 0.0, -187500.02235174447, -147222.26825025896, -187500.02235174447, -187500.02235174447, 0.11, 0.0, 0.994, 192.0, 3.0, 112.0, 0.0, 0.0, 31.0, 16.0, 0.0, 0.0, 0.0, 1.7094209346643512E9, 0.0, 2024-03-02 15:08:54.664
79.0, 0.0, 0.0, -144769.94660734496, 0.0, -187500.02235174447, -146545.09980024098, -187500.02235174447, -187500.02235174447, 0.11, 0.0, 0.994, 192.0, 0.0, 0.0, 0.0, 0.0, 0.0, 0.0, 0.0, 0.0, 0.0, 1.709420934664358E9, 0.0, 2024-03-02 15:08:54.664
80.0, 0.0, 0.0, -144698.28691462125, 0.0, -187500.02235174447, -146530.21353843375, -187500.02235174447, -187500.02235174447, 0.11, 0.0, 0.994, 192.0, 0.0, 0.0, 0.0, 0.0, 0.0, 0.0, 0.0, 0.0, 0.0, 1.709420934664365E9, 0.0, 2024-03-02 15:08:54.664
81.0, 0.0, 0.0, -145349.23676839314, 0.0, -187500.02235174447, -147223.47524445955, -187500.02235174447, -187500.02235174447, 0.11, 0.0, 0.994, 192.0, 0.0, 0.0, 0.0, 0.0, 0.0, 0.0, 0.0, 0.0, 0.0, 1.709420934664372E9, 0.0, 2024-03-02 15:08:54.664
82.0, 0.0, 0.0, -145594.0107219232, 0.0, -187500.02235174447, -147418.4942148321, -187500.02235174447, -187500.02235174447, 0.11, 0.0, 0.994, 192.0, 0.0, 0.0, 0.0, 0.0, 0.0, 0.0, 0.0, 0.0, 0.0, 1.7094209346643786E9, 0.0, 2024-03-02 15:08:54.664
83.0, 0.0, 0.0, -144989.5301448739, 0.0, -187500.02235174447, -146773.8475529966, -187500.02235174447, -187500.02235174447, 0.11, 0.0, 0.994, 192.0, 0.0, 0.0, 0.0, 0.0, 0.0, 0.0, 0.0, 0.0, 0.0, 1.7094209346643856E9, 0.0, 2024-03-02 15:08:54.664
84.0, 0.0, 0.0, -144717.93409799744, 0.0, -187500.02235174447, -146550.75479158817, -187500.02235174447, -187500.02235174447, 0.11, 0.0, 0.994, 192.0, 0.0, 0.0, 0.0, 0.0, 0.0, 0.0, 0.0, 0.0, 0.0, 1.7094209346643922E9, 0.0, 2024-03-02 15:08:54.664
85.0, 0.0, 0.0, -145305.42734926075, 0.0, -187500.02235174447, -147171.5297903454, -187500.02235174447, -187500.02235174447, 0.11, 0.0, 0.994, 192.0, 0.0, 0.0, 0.0, 0.0, 0.0, 0.0, 0.0, 0.0, 0.0, 1.709420934664399E9, 0.0, 2024-03-02 15:08:54.664
86.0, 0.0, 0.0, -145665.06691754662, 0.0, -187500.02235174447, -147494.08781457995, -187500.02235174447, -187500.02235174447, 0.11, 0.0, 0.994, 192.0, 0.0, 0.0, 0.0, 0.0, 0.0, 0.0, 0.0, 0.0, 0.0, 1.7094209346644056E9, 0.0, 2024-03-02 15:08:54.664
87.0, 0.0, 0.0, -145156.22945502156, 0.0, -187500.02235174447, -146925.66060133703, -187500.02235174447, -187500.02235174447, 0.11, 0.0, 0.994, 192.0, 0.0, 0.0, 0.0, 0.0, 0.0, 0.0, 0.0, 0.0, 0.0, 1.7094209346644144E9, 0.0, 2024-03-02 15:08:54.664
88.0, 0.0, 0.0, -144746.56668264468, 0.0, -187500.02235174447, -146547.06675375305, -187500.02235174447, -187500.02235174447, 0.112, -0.004, 0.996, 192.0, 3.0, 128.0, 255.0, 224.0, 31.0, 32.0, 0.0, 0.0, 0.0, 1.7094209346644216E9, 0.0, 2024-03-02 15:08:54.664
89.0, 0.0, 0.0, -145200.06122589842, 0.0, -187500.02235174447, -147069.87405656266, -187500.02235174447, -187500.02235174447, 0.112, -0.004, 0.996, 192.0, 0.0, 0.0, 0.0, 0.0, 0.0, 0.0, 0.0, 0.0, 0.0, 1.7094209346644433E9, 0.0, 2024-03-02 15:08:54.664
90.0, 0.0, 0.0, -145705.52357501074, 0.0, -187500.02235174447, -147539.35009710194, -187500.02235174447, -187500.02235174447, 0.112, -0.004, 0.996, 192.0, 0.0, 0.0, 0.0, 0.0, 0.0, 0.0, 0.0, 0.0, 0.0, 1.7094209346644504E9, 0.0, 2024-03-02 15:08:54.664
91.0, 0.0, 0.0, -145313.0939976089, 0.0, -187500.02235174447, -147081.31814972378, -187500.02235174447, -187500.02235174447, 0.112, -0.004, 0.996, 192.0, 0.0, 0.0, 0.0, 0.0, 0.0, 0.0, 0.0, 0.0, 0.0, 1.709420934664457E9, 0.0, 2024-03-02 15:08:54.664
92.0, 0.0, 0.0, -144763.419897964, 0.0, -187500.02235174447, -146560.5001521707, -187500.02235174447, -187500.02235174447, 0.112, -0.004, 0.996, 192.0, 0.0, 0.0, 0.0, 0.0, 0.0, 0.0, 0.0, 0.0, 0.0, 1.709420934664464E9, 0.0, 2024-03-02 15:08:54.664
93.0, 0.0, 0.0, -145115.996315002, 0.0, -187500.02235174447, -146953.1308952726, -187500.02235174447, -187500.02235174447, 0.112, -0.004, 0.996, 192.0, 0.0, 0.0, 0.0, 0.0, 0.0, 0.0, 0.0, 0.0, 0.0, 1.7094209346644707E9, 0.0, 2024-03-02 15:08:54.664
94.0, 0.0, 0.0, -145748.61773832058, 0.0, -187500.02235174447, -147573.01182425165, -187500.02235174447, -187500.02235174447, 0.112, -0.004, 0.996, 192.0, 0.0, 0.0, 0.0, 0.0, 0.0, 0.0, 0.0, 0.0, 0.0, 1.709420934664478E9, 0.0, 2024-03-02 15:08:54.664
95.0, 0.0, 0.0, -145443.44937127226, 0.0, -187500.02235174447, -147241.758971424, -187500.02235174447, -187500.02235174447, 0.112, -0.004, 0.996, 192.0, 0.0, 0.0, 0.0, 0.0, 0.0, 0.0, 0.0, 0.0, 0.0, 1.7094209346644845E9, 0.0, 2024-03-02 15:08:54.664
96.0, 0.0, 0.0, -144747.97484254537, 0.0, -187500.02235174447, -146560.4330969373, -187500.02235174447, -187500.02235174447, 0.112, -0.004, 0.996, 192.0, 0.0, 0.0, 0.0, 0.0, 0.0, 0.0, 0.0, 0.0, 0.0, 1.7094209346644912E9, 0.0, 2024-03-02 15:08:54.664
97.0, 0.0, 0.0, -144836.75597152187, 0.0, -187500.02235174447, -146721.56682271563, -187500.02235174447, -187500.02235174447, 0.112, -0.004, 0.996, 192.0, 0.0, 0.0, 0.0, 0.0, 0.0, 0.0, 0.0, 0.0, 0.0, 1.709420934664498E9, 0.0, 2024-03-02 15:08:54.664
98.0, 0.0, 0.0, -145483.45899384725, 0.0, -187500.02235174447, -147400.00932216758, -187500.02235174447, -187500.02235174447, 0.112, -0.002, 0.99, 192.0, 3.0, 128.0, 255.0, 240.0, 30.0, 240.0, 0.0, 0.0, 0.0, 1.7094209346645048E9, 0.0, 2024-03-02 15:08:54.664
99.0, 0.0, 0.0, -145355.45055335172, 0.0, -187500.02235174447, -147142.22665336452, -187500.02235174447, -187500.02235174447, 0.112, -0.002, 0.99, 192.0, 0.0, 0.0, 0.0, 0.0, 0.0, 0.0, 0.0, 0.0, 0.0, 1.7094209346645331E9, 0.0, 2024-03-02 15:08:54.664
100.0, 0.0, 0.0, -144676.98570215533, 0.0, -187500.02235174447, -146419.28183070206, -187500.02235174447, -187500.02235174447, 0.112, -0.002, 0.99, 192.0, 0.0, 0.0, 0.0, 0.0, 0.0, 0.0, 0.0, 0.0, 0.0, 1.7094209346645434E9, 0.0, 2024-03-02 15:08:54.664
101.0, 0.0, 0.0, -144651.72823092082, 0.0, -187500.02235174447, -146456.60924394242, -187500.02235174447, -187500.02235174447, 0.112, -0.002, 0.99, 192.0, 0.0, 0.0, 0.0, 0.0, 0.0, 0.0, 0.0, 0.0, 0.0, 1.7094209346645508E9, 0.0, 2024-03-02 15:08:54.664
102.0, 0.0, 0.0, -145267.7423081091, 0.0, -187500.02235174447, -147116.231574563, -187500.02235174447, -187500.02235174447, 0.112, -0.002, 0.99, 192.0, 0.0, 0.0, 0.0, 0.0, 0.0, 0.0, 0.0, 0.0, 0.0, 1.709420934664569E9, 0.0, 2024-03-02 15:08:54.664
103.0, 0.0, 0.0, -145304.1980033157, 0.0, -187500.02235174447, -147086.32494048178, -187500.02235174447, -187500.02235174447, 0.112, -0.002, 0.99, 192.0, 0.0, 0.0, 0.0, 0.0, 0.0, 0.0, 0.0, 0.0, 0.0, 1.709420934664576E9, 0.0, 2024-03-02 15:08:54.664
104.0, 0.0, 0.0, -144635.50086444628, 0.0, -187500.02235174447, -146389.71047278767, -187500.02235174447, -187500.02235174447, 0.112, -0.002, 0.99, 192.0, 0.0, 0.0, 0.0, 0.0, 0.0, 0.0, 0.0, 0.0, 0.0, 1.7094209346645832E9, 0.0, 2024-03-02 15:08:54.664
105.0, 0.0, 0.0, -144401.58985872148, 0.0, -187500.02235174447, -146219.6136974828, -187500.02235174447, -187500.02235174447, 0.112, -0.002, 0.99, 192.0, 0.0, 0.0, 0.0, 0.0, 0.0, 0.0, 0.0, 0.0, 0.0, 1.70942093466459E9, 0.0, 2024-03-02 15:08:54.664
106.0, 0.0, 0.0, -144965.52437132888, 0.0, -187500.02235174447, -146825.07775128816, -187500.02235174447, -187500.02235174447, 0.112, -0.002, 0.99, 192.0, 0.0, 0.0, 0.0, 0.0, 0.0, 0.0, 0.0, 0.0, 0.0, 1.709420934664598E9, 0.0, 2024-03-02 15:08:54.664
107.0, 0.0, 0.0, -145168.50056272754, 0.0, -187500.02235174447, -147005.18810810903, -187500.02235174447, -187500.02235174447, 0.112, -0.002, 0.99, 192.0, 0.0, 0.0, 0.0, 0.0, 0.0, 0.0, 0.0, 0.0, 0.0, 1.7094209346646051E9, 0.0, 2024-03-02 15:08:54.664
108.0, 0.0, 0.0, -144568.93736945838, 0.0, -187500.02235174447, -146394.42669086775, -187500.02235174447, -187500.02235174447, 0.114, 0.0, 0.992, 192.0, 3.0, 144.0, 0.0, 0.0, 31.0, 0.0, 0.0, 0.0, 0.0, 1.7094209346646144E9, 0.0, 2024-03-02 15:08:54.664
109.0, 0.0, 0.0, -144258.4492872297, 0.0, -187500.02235174447, -146057.09416354826, -187500.02235174447, -187500.02235174447, 0.114, 0.0, 0.992, 192.0, 0.0, 0.0, 0.0, 0.0, 0.0, 0.0, 0.0, 0.0, 0.0, 1.709420934664621E9, 0.0, 2024-03-02 15:08:54.664
110.0, 0.0, 0.0, -144743.34803144314, 0.0, -187500.02235174447, -146630.63992627143, -187500.02235174447, -187500.02235174447, 0.114, 0.0, 0.992, 192.0, 0.0, 0.0, 0.0, 0.0, 0.0, 0.0, 0.0, 0.0, 0.0, 1.709420934664628E9, 0.0, 2024-03-02 15:08:54.664
111.0, 0.0, 0.0, -145045.990651368, 0.0, -187500.02235174447, -146849.23998704433, -187500.02235174447, -187500.02235174447, 0.114, 0.0, 0.992, 192.0, 0.0, 0.0, 0.0, 0.0, 0.0, 0.0, 0.0, 0.0, 0.0, 1.7094209346646347E9, 0.0, 2024-03-02 15:08:54.664
112.0, 0.0, 0.0, -144507.13479603943, 0.0, -187500.02235174447, -146284.81373605892, -187500.02235174447, -187500.02235174447, 0.114, 0.0, 0.992, 192.0, 0.0, 0.0, 0.0, 0.0, 0.0, 0.0, 0.0, 0.0, 0.0, 1.7094209346646416E9, 0.0, 2024-03-02 15:08:54.664
113.0, 0.0, 0.0, -144038.0610869004, 0.0, -187500.02235174447, -145802.4183872245, -187500.02235174447, -187500.02235174447, 0.114, 0.0, 0.992, 192.0, 0.0, 0.0, 0.0, 0.0, 0.0, 0.0, 0.0, 0.0, 0.0, 1.7094209346646488E9, 0.0, 2024-03-02 15:08:54.664
114.0, 0.0, 0.0, -144447.12036217694, 0.0, -187500.02235174447, -146249.9226629642, -187500.02235174447, -187500.02235174447, 0.114, 0.0, 0.992, 192.0, 0.0, 0.0, 0.0, 0.0, 0.0, 0.0, 0.0, 0.0, 0.0, 1.7094209346646564E9, 0.0, 2024-03-02 15:08:54.664
115.0, 0.0, 0.0, -144967.9160079856, 0.0, -187500.02235174447, -146767.36554710456, -187500.02235174447, -187500.02235174447, 0.114, 0.0, 0.992, 192.0, 0.0, 0.0, 0.0, 0.0, 0.0, 0.0, 0.0, 0.0, 0.0, 1.7094209346646633E9, 0.0, 2024-03-02 15:08:54.664
116.0, 0.0, 0.0, -144621.19574799488, 0.0, -187500.02235174447, -146353.32183281446, -187500.02235174447, -187500.02235174447, 0.114, 0.0, 0.992, 192.0, 0.0, 0.0, 0.0, 0.0, 0.0, 0.0, 0.0, 0.0, 0.0, 1.70942093466467E9, 0.0, 2024-03-02 15:08:54.664
117.0, 0.0, 0.0, -144060.30107263342, 0.0, -187500.02235174447, -145811.0685123287, -187500.02235174447, -187500.02235174447, 0.114, 0.0, 0.992, 192.0, 0.0, 0.0, 0.0, 0.0, 0.0, 0.0, 0.0, 0.0, 0.0, 1.709420934664677E9, 0.0, 2024-03-02 15:08:54.664
118.0, 0.0, 0.0, -144353.4665529092, 0.0, -187500.02235174447, -146165.8577520678, -187500.02235174447, -187500.02235174447, 0.108, -0.002, 0.99, 192.0, 3.0, 96.0, 255.0, 240.0, 30.0, 240.0, 0.0, 0.0, 0.0, 1.7094209346646836E9, 0.0, 2024-03-02 15:08:54.664
119.0, 0.0, 0.0, -144942.09974313973, 0.0, -187500.02235174447, -146760.1459336455, -187500.02235174447, -187500.02235174447, 0.108, -0.002, 0.99, 192.0, 0.0, 0.0, 0.0, 0.0, 0.0, 0.0, 0.0, 0.0, 0.0, 1.7094209346646905E9, 0.0, 2024-03-02 15:08:54.664
120.0, 0.0, 0.0, -144704.90303098, 0.0, -187500.02235174447, -146496.23888686168, -187500.02235174447, -187500.02235174447, 0.108, -0.002, 0.99, 192.0, 0.0, 0.0, 0.0, 0.0, 0.0, 0.0, 0.0, 0.0, 0.0, 1.7094209346646972E9, 0.0, 2024-03-02 15:08:54.664
121.0, 0.0, 0.0, -144106.18920400014, 0.0, -187500.02235174447, -145893.9934842579, -187500.02235174447, -187500.02235174447, 0.108, -0.002, 0.99, 192.0, 0.0, 0.0, 0.0, 0.0, 0.0, 0.0, 0.0, 0.0, 0.0, 1.7094209351431642E9, 0.0, 2024-03-02 15:08:55.143
122.0, 0.0, 0.0, -144244.5017986896, 0.0, -187500.02235174447, -146087.89486740768, -187500.02235174447, -187500.02235174447, 0.108, -0.002, 0.99, 192.0, 0.0, 0.0, 0.0, 0.0, 0.0, 0.0, 0.0, 0.0, 0.0, 1.709420935143195E9, 0.0, 2024-03-02 15:08:55.143
123.0, 0.0, 0.0, -144919.63623996213, 0.0, -187500.02235174447, -146737.41420953444, -187500.02235174447, -187500.02235174447, 0.108, -0.002, 0.99, 192.0, 0.0, 0.0, 0.0, 0.0, 0.0, 0.0, 0.0, 0.0, 0.0, 1.7094209351432135E9, 0.0, 2024-03-02 15:08:55.143
124.0, 0.0, 0.0, -144857.40898339858, 0.0, -187500.02235174447, -146601.87323115746, -187500.02235174447, -187500.02235174447, 0.108, -0.002, 0.99, 192.0, 0.0, 0.0, 0.0, 0.0, 0.0, 0.0, 0.0, 0.0, 0.0, 1.709420935143231E9, 0.0, 2024-03-02 15:08:55.143
125.0, 0.0, 0.0, -144233.035353784, 0.0, -187500.02235174447, -145967.24015083793, -187500.02235174447, -187500.02235174447, 0.108, -0.002, 0.99, 192.0, 0.0, 0.0, 0.0, 0.0, 0.0, 0.0, 0.0, 0.0, 0.0, 1.7094209351432474E9, 0.0, 2024-03-02 15:08:55.143
126.0, 0.0, 0.0, -144149.19396033217, 0.0, -187500.02235174447, -145972.58221776274, -187500.02235174447, -187500.02235174447, 0.108, -0.002, 0.99, 192.0, 0.0, 0.0, 0.0, 0.0, 0.0, 0.0, 0.0, 0.0, 0.0, 1.709420935143262E9, 0.0, 2024-03-02 15:08:55.143
127.0, 0.0, 0.0, -144789.19145932098, 0.0, -187500.02235174447, -146643.89451073343, -187500.02235174447, -187500.02235174447, 0.108, -0.002, 0.99, 192.0, 0.0, 0.0, 0.0, 0.0, 0.0, 0.0, 0.0, 0.0, 0.0, 1.7094209351432683E9, 0.0, 2024-03-02 15:08:55.143
128.0, 0.0, 0.0, -144896.97157108446, 0.0, -187500.02235174447, -146669.80018255714, -187500.02235174447, -187500.02235174447, 0.114, 0.0, 0.994, 192.0, 3.0, 144.0, 0.0, 0.0, 31.0, 16.0, 0.0, 0.0, 0.0, 1.7094209351432745E9, 0.0, 2024-03-02 15:08:55.143
129.0, 0.0, 0.0, -144296.42490105928, 0.0, -187500.02235174447, -146028.5733376233, -187500.02235174447, -187500.02235174447, 0.114, 0.0, 0.994, 192.0, 0.0, 0.0, 0.0, 0.0, 0.0, 0.0, 0.0, 0.0, 0.0, 1.7094209351432807E9, 0.0, 2024-03-02 15:08:55.143
130.0, 0.0, 0.0, -144000.66661842665, 0.0, -187500.02235174447, -145802.59720118012, -187500.02235174447, -187500.02235174447, 0.114, 0.0, 0.994, 192.0, 0.0, 0.0, 0.0, 0.0, 0.0, 0.0, 0.0, 0.0, 0.0, 1.7094209351432872E9, 0.0, 2024-03-02 15:08:55.143
131.0, 0.0, 0.0, -144524.18917705884, 0.0, -187500.02235174447, -146379.83100173844, -187500.02235174447, -187500.02235174447, 0.114, 0.0, 0.994, 192.0, 0.0, 0.0, 0.0, 0.0, 0.0, 0.0, 0.0, 0.0, 0.0, 1.7094209351432934E9, 0.0, 2024-03-02 15:08:55.143
132.0, 0.0, 0.0, -144795.89698265755, 0.0, -187500.02235174447, -146615.39603655293, -187500.02235174447, -187500.02235174447, 0.114, 0.0, 0.994, 192.0, 0.0, 0.0, 0.0, 0.0, 0.0, 0.0, 0.0, 0.0, 0.0, 1.7094209351433E9, 0.0, 2024-03-02 15:08:55.143
133.0, 0.0, 0.0, -144241.21609225465, 0.0, -187500.02235174447, -145998.1079099307, -187500.02235174447, -187500.02235174447, 0.114, 0.0, 0.994, 192.0, 0.0, 0.0, 0.0, 0.0, 0.0, 0.0, 0.0, 0.0, 0.0, 1.7094209351433065E9, 0.0, 2024-03-02 15:08:55.143
134.0, 0.0, 0.0, -143927.79993150235, 0.0, -187500.02235174447, -145712.96670591435, -187500.02235174447, -187500.02235174447, 0.114, 0.0, 0.994, 192.0, 0.0, 0.0, 0.0, 0.0, 0.0, 0.0, 0.0, 0.0, 0.0, 1.7094209351433136E9, 0.0, 2024-03-02 15:08:55.143
135.0, 0.0, 0.0, -144449.8025715116, 0.0, -187500.02235174447, -146282.3326924244, -187500.02235174447, -187500.02235174447, 0.114, 0.0, 0.994, 192.0, 0.0, 0.0, 0.0, 0.0, 0.0, 0.0, 0.0, 0.0, 0.0, 1.7094209351433196E9, 0.0, 2024-03-02 15:08:55.143
136.0, 0.0, 0.0, -144878.35256795317, 0.0, -187500.02235174447, -146687.9274473104, -187500.02235174447, -187500.02235174447, 0.114, 0.0, 0.994, 192.0, 0.0, 0.0, 0.0, 0.0, 0.0, 0.0, 0.0, 0.0, 0.0, 1.7094209351433256E9, 0.0, 2024-03-02 15:08:55.143
137.0, 0.0, 0.0, -144412.85513792696, 0.0, -187500.02235174447, -146181.61573190877, -187500.02235174447, -187500.02235174447, 0.114, 0.0, 0.994, 192.0, 0.0, 0.0, 0.0, 0.0, 0.0, 0.0, 0.0, 0.0, 0.0, 1.7094209351433318E9, 0.0, 2024-03-02 15:08:55.143
138.0, 0.0, 0.0, -143981.19824900606, 0.0, -187500.02235174447, -145773.89756129953, -187500.02235174447, -187500.02235174447, 0.114, 0.0, 0.994, 192.0, 0.0, 0.0, 0.0, 0.0, 0.0, 0.0, 0.0, 0.0, 0.0, 1.709420935143338E9, 0.0, 2024-03-02 15:08:55.143
139.0, 0.0, 0.0, -144354.8747128099, 0.0, -187500.02235174447, -146200.0559210844, -187500.02235174447, -187500.02235174447, 0.112, 0.0, 0.996, 192.0, 3.0, 128.0, 0.0, 0.0, 31.0, 32.0, 0.0, 0.0, 0.0, 1.709420935143345E9, 0.0, 2024-03-02 15:08:55.143
140.0, 0.0, 0.0, -144923.6148504752, 0.0, -187500.02235174447, -146754.31212834266, -187500.02235174447, -187500.02235174447, 0.112, 0.0, 0.996, 192.0, 0.0, 0.0, 0.0, 0.0, 0.0, 0.0, 0.0, 0.0, 0.0, 1.7094209351433516E9, 0.0, 2024-03-02 15:08:55.143
141.0, 0.0, 0.0, -144591.2891139137, 0.0, -187500.02235174447, -146349.65614672378, -187500.02235174447, -187500.02235174447, 0.112, 0.0, 0.996, 192.0, 0.0, 0.0, 0.0, 0.0, 0.0, 0.0, 0.0, 0.0, 0.0, 1.7094209351433578E9, 0.0, 2024-03-02 15:08:55.143
142.0, 0.0, 0.0, -144037.23407235552, 0.0, -187500.02235174447, -145796.94220983295, -187500.02235174447, -187500.02235174447, 0.112, 0.0, 0.996, 192.0, 0.0, 0.0, 0.0, 0.0, 0.0, 0.0, 0.0, 0.0, 0.0, 1.7094209351433642E9, 0.0, 2024-03-02 15:08:55.143
143.0, 0.0, 0.0, -144244.23357775612, 0.0, -187500.02235174447, -146067.3312625088, -187500.02235174447, -187500.02235174447, 0.112, 0.0, 0.996, 192.0, 0.0, 0.0, 0.0, 0.0, 0.0, 0.0, 0.0, 0.0, 0.0, 1.7094209351433704E9, 0.0, 2024-03-02 15:08:55.143
144.0, 0.0, 0.0, -144826.94355570598, 0.0, -187500.02235174447, -146665.35218541053, -187500.02235174447, -187500.02235174447, 0.112, 0.0, 0.996, 192.0, 0.0, 0.0, 0.0, 0.0, 0.0, 0.0, 0.0, 0.0, 0.0, 1.7094209351433766E9, 0.0, 2024-03-02 15:08:55.143
145.0, 0.0, 0.0, -144665.18398108293, 0.0, -187500.02235174447, -146442.28177574658, -187500.02235174447, -187500.02235174447, 0.112, 0.0, 0.996, 192.0, 0.0, 0.0, 0.0, 0.0, 0.0, 0.0, 0.0, 0.0, 0.0, 1.7094209351433835E9, 0.0, 2024-03-02 15:08:55.143
146.0, 0.0, 0.0, -144073.68976756214, 0.0, -187500.02235174447, -145855.63789077257, -187500.02235174447, -187500.02235174447, 0.112, 0.0, 0.996, 192.0, 0.0, 0.0, 0.0, 0.0, 0.0, 0.0, 0.0, 0.0, 0.0, 1.709420935143391E9, 0.0, 2024-03-02 15:08:55.143
147.0, 0.0, 0.0, -144175.50196355605, 0.0, -187500.02235174447, -146006.89214550165, -187500.02235174447, -187500.02235174447, 0.112, 0.0, 0.996, 192.0, 0.0, 0.0, 0.0, 0.0, 0.0, 0.0, 0.0, 0.0, 0.0, 1.709420935143397E9, 0.0, 2024-03-02 15:08:55.143
148.0, 0.0, 0.0, -144806.42465429602, 0.0, -187500.02235174447, -146646.5096648347, -187500.02235174447, -187500.02235174447, 0.112, 0.0, 0.996, 192.0, 0.0, 0.0, 0.0, 0.0, 0.0, 0.0, 0.0, 0.0, 0.0, 1.709420935143403E9, 0.0, 2024-03-02 15:08:55.143
149.0, 0.0, 0.0, -144789.34792153214, 0.0, -187500.02235174447, -146571.7430796317, -187500.02235174447, -187500.02235174447, 0.108, -0.002, 0.998, 192.0, 3.0, 96.0, 255.0, 240.0, 31.0, 48.0, 0.0, 0.0, 0.0, 1.709420935143409E9, 0.0, 2024-03-02 15:08:55.143
150.0, 0.0, 0.0, -144240.1432085208, 0.0, -187500.02235174447, -145987.64729352563, -187500.02235174447, -187500.02235174447, 0.108, -0.002, 0.998, 192.0, 0.0, 0.0, 0.0, 0.0, 0.0, 0.0, 0.0, 0.0, 0.0, 1.7094209351434152E9, 0.0, 2024-03-02 15:08:55.143
151.0, 0.0, 0.0, -144232.7000776172, 0.0, -187500.02235174447, -146033.24485221444, -187500.02235174447, -187500.02235174447, 0.108, -0.002, 0.998, 192.0, 0.0, 0.0, 0.0, 0.0, 0.0, 0.0, 0.0, 0.0, 0.0, 1.7094209351434224E9, 0.0, 2024-03-02 15:08:55.143
152.0, 0.0, 0.0, -144877.05616677477, 0.0, -187500.02235174447, -146720.5833459596, -187500.02235174447, -187500.02235174447, 0.108, -0.002, 0.998, 192.0, 0.0, 0.0, 0.0, 0.0, 0.0, 0.0, 0.0, 0.0, 0.0, 1.7094209351434288E9, 0.0, 2024-03-02 15:08:55.143
153.0, 0.0, 0.0, -145052.07032585982, 0.0, -187500.02235174447, -146846.08839107613, -187500.02235174447, -187500.02235174447, 0.108, -0.002, 0.998, 192.0, 0.0, 0.0, 0.0, 0.0, 0.0, 0.0, 0.0, 0.0, 0.0, 1.7094209351434348E9, 0.0, 2024-03-02 15:08:55.143
154.0, 0.0, 0.0, -144568.24446538027, 0.0, -187500.02235174447, -146324.91276561175, -187500.02235174447, -187500.02235174447, 0.108, -0.002, 0.998, 192.0, 0.0, 0.0, 0.0, 0.0, 0.0, 0.0, 0.0, 0.0, 0.0, 1.709420935143441E9, 0.0, 2024-03-02 15:08:55.143
155.0, 0.0, 0.0, -144402.12630058842, 0.0, -187500.02235174447, -146201.9558193631, -187500.02235174447, -187500.02235174447, 0.108, -0.002, 0.998, 192.0, 0.0, 0.0, 0.0, 0.0, 0.0, 0.0, 0.0, 0.0, 0.0, 1.7094209351434472E9, 0.0, 2024-03-02 15:08:55.143
156.0, 0.0, 0.0, -144939.30577508282, 0.0, -187500.02235174447, -146778.80964026568, -187500.02235174447, -187500.02235174447, 0.108, -0.002, 0.998, 192.0, 0.0, 0.0, 0.0, 0.0, 0.0, 0.0, 0.0, 0.0, 0.0, 1.7094209351434534E9, 0.0, 2024-03-02 15:08:55.143
157.0, 0.0, 0.0, -145295.21260204466, 0.0, -187500.02235174447, -147088.82833586077, -187500.02235174447, -187500.02235174447, 0.108, -0.002, 0.998, 192.0, 0.0, 0.0, 0.0, 0.0, 0.0, 0.0, 0.0, 0.0, 0.0, 1.7094209351434596E9, 0.0, 2024-03-02 15:08:55.143
158.0, 0.0, 0.0, -144819.90275620256, 0.0, -187500.02235174447, -146561.01424229317, -187500.02235174447, -187500.02235174447, 0.108, -0.002, 0.998, 192.0, 0.0, 0.0, 0.0, 0.0, 0.0, 0.0, 0.0, 0.0, 0.0, 1.709420935143466E9, 0.0, 2024-03-02 15:08:55.143
159.0, 0.0, 0.0, -144507.89475535092, 0.0, -187500.02235174447, -146281.90800927975, -187500.02235174447, -187500.02235174447, 0.108, -0.008, 0.998, 192.0, 3.0, 96.0, 255.0, 192.0, 31.0, 48.0, 0.0, 0.0, 0.0, 1.7094209351434724E9, 0.0, 2024-03-02 15:08:55.143
160.0, 0.0, 0.0, -144958.99766194794, 0.0, -187500.02235174447, -146788.7561665483, -187500.02235174447, -187500.02235174447, 0.108, -0.008, 0.998, 192.0, 0.0, 0.0, 0.0, 0.0, 0.0, 0.0, 0.0, 0.0, 0.0, 1.70942093514348E9, 0.0, 2024-03-02 15:08:55.143
161.0, 0.0, 0.0, -145428.96544086523, 0.0, -187500.02235174447, -147235.2546137875, -187500.02235174447, -187500.02235174447, 0.108, -0.008, 0.998, 192.0, 0.0, 0.0, 0.0, 0.0, 0.0, 0.0, 0.0, 0.0, 0.0, 1.709420935143486E9, 0.0, 2024-03-02 15:08:55.143
162.0, 0.0, 0.0, -145083.2957128639, 0.0, -187500.02235174447, -146845.14961780902, -187500.02235174447, -187500.02235174447, 0.108, -0.008, 0.998, 192.0, 0.0, 0.0, 0.0, 0.0, 0.0, 0.0, 0.0, 0.0, 0.0, 1.7094209351434927E9, 0.0, 2024-03-02 15:08:55.143
163.0, 0.0, 0.0, -144656.4444490009, 0.0, -187500.02235174447, -146427.7084383617, -187500.02235174447, -187500.02235174447, 0.108, -0.008, 0.998, 192.0, 0.0, 0.0, 0.0, 0.0, 0.0, 0.0, 0.0, 0.0, 0.0, 1.709420935143499E9, 0.0, 2024-03-02 15:08:55.143
164.0, 0.0, 0.0, -145008.03738928286, 0.0, -187500.02235174447, -146819.08748377414, -187500.02235174447, -187500.02235174447, 0.108, -0.008, 0.998, 192.0, 0.0, 0.0, 0.0, 0.0, 0.0, 0.0, 0.0, 0.0, 0.0, 1.7094209351435053E9, 0.0, 2024-03-02 15:08:55.143
165.0, 0.0, 0.0, -145531.4481891928, 0.0, -187500.02235174447, -147354.00943207854, -187500.02235174447, -187500.02235174447, 0.108, -0.008, 0.998, 192.0, 0.0, 0.0, 0.0, 0.0, 0.0, 0.0, 0.0, 0.0, 0.0, 1.7094209351435115E9, 0.0, 2024-03-02 15:08:55.143
166.0, 0.0, 0.0, -145287.21067752966, 0.0, -187500.02235174447, -147051.3668121537, -187500.02235174447, -187500.02235174447, 0.108, -0.008, 0.998, 192.0, 0.0, 0.0, 0.0, 0.0, 0.0, 0.0, 0.0, 0.0, 0.0, 1.7094209351435175E9, 0.0, 2024-03-02 15:08:55.143
167.0, 0.0, 0.0, -144795.5393547463, 0.0, -187500.02235174447, -146560.9471870598, -187500.02235174447, -187500.02235174447, 0.108, -0.008, 0.998, 192.0, 0.0, 0.0, 0.0, 0.0, 0.0, 0.0, 0.0, 0.0, 0.0, 1.7094209351435237E9, 0.0, 2024-03-02 15:08:55.143
168.0, 0.0, 0.0, -144993.64286585368, 0.0, -187500.02235174447, -146813.34308544913, -187500.02235174447, -187500.02235174447, 0.108, -0.008, 0.998, 192.0, 0.0, 0.0, 0.0, 0.0, 0.0, 0.0, 0.0, 0.0, 0.0, 1.70942093514353E9, 0.0, 2024-03-02 15:08:55.143
169.0, 0.0, 0.0, -145575.77169844767, 0.0, -187500.02235174447, -147397.21535411064, -187500.02235174447, -187500.02235174447, 0.11, -0.008, 0.992, 192.0, 3.0, 112.0, 255.0, 192.0, 31.0, 0.0, 0.0, 0.0, 0.0, 1.709420935143536E9, 0.0, 2024-03-02 15:08:55.143
170.0, 0.0, 0.0, -145452.41242079885, 0.0, -187500.02235174447, -147206.30910471786, -187500.02235174447, -187500.02235174447, 0.11, -0.008, 0.992, 192.0, 0.0, 0.0, 0.0, 0.0, 0.0, 0.0, 0.0, 0.0, 0.0, 1.709420935143542E9, 0.0, 2024-03-02 15:08:55.143
171.0, 0.0, 0.0, -144935.10364712522, 0.0, -187500.02235174447, -146677.26566520522, -187500.02235174447, -187500.02235174447, 0.11, -0.008, 0.992, 192.0, 0.0, 0.0, 0.0, 0.0, 0.0, 0.0, 0.0, 0.0, 0.0, 1.7094209351435485E9, 0.0, 2024-03-02 15:08:55.143
172.0, 0.0, 0.0, -144952.82858047826, 0.0, -187500.02235174447, -146767.07497442662, -187500.02235174447, -187500.02235174447, 0.11, -0.008, 0.992, 192.0, 0.0, 0.0, 0.0, 0.0, 0.0, 0.0, 0.0, 0.0, 0.0, 1.7094209351435544E9, 0.0, 2024-03-02 15:08:55.143
173.0, 0.0, 0.0, -145564.2605500532, 0.0, -187500.02235174447, -147393.37085406433, -187500.02235174447, -187500.02235174447, 0.11, -0.008, 0.992, 192.0, 0.0, 0.0, 0.0, 0.0, 0.0, 0.0, 0.0, 0.0, 0.0, 1.709420935143561E9, 0.0, 2024-03-02 15:08:55.143
174.0, 0.0, 0.0, -145621.63747806996, 0.0, -187500.02235174447, -147393.52731627552, -187500.02235174447, -187500.02235174447, 0.11, -0.008, 0.992, 192.0, 0.0, 0.0, 0.0, 0.0, 0.0, 0.0, 0.0, 0.0, 0.0, 1.709420935143567E9, 0.0, 2024-03-02 15:08:55.143
175.0, 0.0, 0.0, -145031.95375585006, 0.0, -187500.02235174447, -146781.6483118115, -187500.02235174447, -187500.02235174447, 0.11, -0.008, 0.992, 192.0, 0.0, 0.0, 0.0, 0.0, 0.0, 0.0, 0.0, 0.0, 0.0, 1.709420935143573E9, 0.0, 2024-03-02 15:08:55.143
176.0, 0.0, 0.0, -144895.0493210613, 0.0, -187500.02235174447, -146686.94397055436, -187500.02235174447, -187500.02235174447, 0.11, -0.008, 0.992, 192.0, 0.0, 0.0, 0.0, 0.0, 0.0, 0.0, 0.0, 0.0, 0.0, 1.709420935143579E9, 0.0, 2024-03-02 15:08:55.143
177.0, 0.0, 0.0, -145439.44840901476, 0.0, -187500.02235174447, -147273.83372471735, -187500.02235174447, -187500.02235174447, 0.11, -0.008, 0.992, 192.0, 0.0, 0.0, 0.0, 0.0, 0.0, 0.0, 0.0, 0.0, 0.0, 1.7094209351435857E9, 0.0, 2024-03-02 15:08:55.143
178.0, 0.0, 0.0, -145566.62983496545, 0.0, -187500.02235174447, -147358.07744956942, -187500.02235174447, -187500.02235174447, 0.11, -0.008, 0.992, 192.0, 0.0, 0.0, 0.0, 0.0, 0.0, 0.0, 0.0, 0.0, 0.0, 1.7094209351435924E9, 0.0, 2024-03-02 15:08:55.143
179.0, 0.0, 0.0, -144969.23476090847, 0.0, -187500.02235174447, -146714.6824854234, -187500.02235174447, -187500.02235174447, 0.114, -0.004, 0.994, 192.0, 3.0, 144.0, 255.0, 224.0, 31.0, 16.0, 0.0, 0.0, 0.0, 1.7094209351435983E9, 0.0, 2024-03-02 15:08:55.143
180.0, 0.0, 0.0, -144676.82923994414, 0.0, -187500.02235174447, -146447.4226769713, -187500.02235174447, -187500.02235174447, 0.114, -0.004, 0.994, 192.0, 0.0, 0.0, 0.0, 0.0, 0.0, 0.0, 0.0, 0.0, 0.0, 1.7094209351436045E9, 0.0, 2024-03-02 15:08:55.143
181.0, 0.0, 0.0, -145170.82514415088, 0.0, -187500.02235174447, -146993.16286959205, -187500.02235174447, -187500.02235174447, 0.114, -0.004, 0.994, 192.0, 0.0, 0.0, 0.0, 0.0, 0.0, 0.0, 0.0, 0.0, 0.0, 1.7094209351436107E9, 0.0, 2024-03-02 15:08:55.143
182.0, 0.0, 0.0, -145499.30638066606, 0.0, -187500.02235174447, -147286.66362603471, -187500.02235174447, -187500.02235174447, 0.114, -0.004, 0.994, 192.0, 0.0, 0.0, 0.0, 0.0, 0.0, 0.0, 0.0, 0.0, 0.0, 1.7094209351436164E9, 0.0, 2024-03-02 15:08:55.143
183.0, 0.0, 0.0, -145033.33956400628, 0.0, -187500.02235174447, -146777.46853559834, -187500.02235174447, -187500.02235174447, 0.114, -0.004, 0.994, 192.0, 0.0, 0.0, 0.0, 0.0, 0.0, 0.0, 0.0, 0.0, 0.0, 1.7094209351436229E9, 0.0, 2024-03-02 15:08:55.143
184.0, 0.0, 0.0, -144630.47172194385, 0.0, -187500.02235174447, -146418.32070569048, -187500.02235174447, -187500.02235174447, 0.114, -0.004, 0.994, 192.0, 0.0, 0.0, 0.0, 0.0, 0.0, 0.0, 0.0, 0.0, 0.0, 1.7094209351436288E9, 0.0, 2024-03-02 15:08:55.143
185.0, 0.0, 0.0, -145013.67002888562, 0.0, -187500.02235174447, -146836.18656828246, -187500.02235174447, -187500.02235174447, 0.114, -0.004, 0.994, 192.0, 0.0, 0.0, 0.0, 0.0, 0.0, 0.0, 0.0, 0.0, 0.0, 1.7094209351436348E9, 0.0, 2024-03-02 15:08:55.143
186.0, 0.0, 0.0, -145499.90987776636, 0.0, -187500.02235174447, -147298.4653471071, -187500.02235174447, -187500.02235174447, 0.114, -0.004, 0.994, 192.0, 0.0, 0.0, 0.0, 0.0, 0.0, 0.0, 0.0, 0.0, 0.0, 1.7094209351436408E9, 0.0, 2024-03-02 15:08:55.143
187.0, 0.0, 0.0, -145095.79033801443, 0.0, -187500.02235174447, -146868.03780413125, -187500.02235174447, -187500.02235174447, 0.114, -0.004, 0.994, 192.0, 0.0, 0.0, 0.0, 0.0, 0.0, 0.0, 0.0, 0.0, 0.0, 1.7094209351436467E9, 0.0, 2024-03-02 15:08:55.143
188.0, 0.0, 0.0, -144609.25991645575, 0.0, -187500.02235174447, -146404.5073276171, -187500.02235174447, -187500.02235174447, 0.114, -0.004, 0.994, 192.0, 0.0, 0.0, 0.0, 0.0, 0.0, 0.0, 0.0, 0.0, 0.0, 1.709420935143653E9, 0.0, 2024-03-02 15:08:55.143
189.0, 0.0, 0.0, -144929.3592488002, 0.0, -187500.02235174447, -146763.47634356932, -187500.02235174447, -187500.02235174447, 0.12, 0.0, 0.992, 192.0, 3.0, 192.0, 0.0, 0.0, 31.0, 0.0, 0.0, 0.0, 0.0, 1.7094209351436589E9, 0.0, 2024-03-02 15:08:55.143
190.0, 0.0, 0.0, -145476.6864152773, 0.0, -187500.02235174447, -147300.72287329708, -187500.02235174447, -187500.02235174447, 0.12, 0.0, 0.992, 192.0, 0.0, 0.0, 0.0, 0.0, 0.0, 0.0, 0.0, 0.0, 0.0, 1.7094209351436653E9, 0.0, 2024-03-02 15:08:55.143
191.0, 0.0, 0.0, -145208.2196126246, 0.0, -187500.02235174447, -146986.01031136638, -187500.02235174447, -187500.02235174447, 0.12, 0.0, 0.992, 192.0, 0.0, 0.0, 0.0, 0.0, 0.0, 0.0, 0.0, 0.0, 0.0, 1.7094209351436713E9, 0.0, 2024-03-02 15:08:55.143
192.0, 0.0, 0.0, -144634.15975977897, 0.0, -187500.02235174447, -146428.9154325623, -187500.02235174447, -187500.02235174447, 0.12, 0.0, 0.992, 192.0, 0.0, 0.0, 0.0, 0.0, 0.0, 0.0, 0.0, 0.0, 0.0, 1.7094209351436772E9, 0.0, 2024-03-02 15:08:55.143
193.0, 0.0, 0.0, -144746.00788903332, 0.0, -187500.02235174447, -146585.4446989828, -187500.02235174447, -187500.02235174447, 0.12, 0.0, 0.992, 192.0, 0.0, 0.0, 0.0, 0.0, 0.0, 0.0, 0.0, 0.0, 0.0, 1.7094209351436832E9, 0.0, 2024-03-02 15:08:55.143
194.0, 0.0, 0.0, -145313.1387010978, 0.0, -187500.02235174447, -147155.86121748225, -187500.02235174447, -187500.02235174447, 0.12, 0.0, 0.992, 192.0, 0.0, 0.0, 0.0, 0.0, 0.0, 0.0, 0.0, 0.0, 0.0, 1.7094209351436892E9, 0.0, 2024-03-02 15:08:55.143
195.0, 0.0, 0.0, -145194.6297519958, 0.0, -187500.02235174447, -146981.8528868977, -187500.02235174447, -187500.02235174447, 0.12, 0.0, 0.992, 192.0, 0.0, 0.0, 0.0, 0.0, 0.0, 0.0, 0.0, 0.0, 0.0, 1.709420935143695E9, 0.0, 2024-03-02 15:08:55.143
196.0, 0.0, 0.0, -144645.42503898442, 0.0, -187500.02235174447, -146415.63849635585, -187500.02235174447, -187500.02235174447, 0.12, 0.0, 0.992, 192.0, 0.0, 0.0, 0.0, 0.0, 0.0, 0.0, 0.0, 0.0, 0.0, 1.7094209351437016E9, 0.0, 2024-03-02 15:08:55.143
197.0, 0.0, 0.0, -144656.2879867897, 0.0, -187500.02235174447, -146472.41192727233, -187500.02235174447, -187500.02235174447, 0.12, 0.0, 0.992, 192.0, 0.0, 0.0, 0.0, 0.0, 0.0, 0.0, 0.0, 0.0, 0.0, 1.7094209351437075E9, 0.0, 2024-03-02 15:08:55.143
198.0, 0.0, 0.0, -145198.58601076438, 0.0, -187500.02235174447, -147037.3075648913, -187500.02235174447, -187500.02235174447, 0.12, 0.0, 0.992, 192.0, 0.0, 0.0, 0.0, 0.0, 0.0, 0.0, 0.0, 0.0, 0.0, 1.7094209351437144E9, 0.0, 2024-03-02 15:08:55.143
199.0, 0.0, 0.0, -145236.47221761613, 0.0, -187500.02235174447, -147041.97907948247, -187500.02235174447, -187500.02235174447, 0.11800000000000001, -0.002, 0.994, 192.0, 3.0, 176.0, 255.0, 240.0, 31.0, 16.0, 0.0, 0.0, 0.0, 1.7094209351437204E9, 0.0, 2024-03-02 15:08:55.143
200.0, 0.0, 0.0, -144692.9448476964, 0.0, -187500.02235174447, -146460.94548236675, -187500.02235174447, -187500.02235174447, 0.11800000000000001, -0.002, 0.994, 192.0, 0.0, 0.0, 0.0, 0.0, 0.0, 0.0, 0.0, 0.0, 0.0, 1.7094209351437263E9, 0.0, 2024-03-02 15:08:55.143
201.0, 0.0, 0.0, -144598.19580295036, 0.0, -187500.02235174447, -146396.39364437983, -187500.02235174447, -187500.02235174447, 0.11800000000000001, -0.002, 0.994, 192.0, 0.0, 0.0, 0.0, 0.0, 0.0, 0.0, 0.0, 0.0, 0.0, 1.7094209351437325E9, 0.0, 2024-03-02 15:08:55.143
202.0, 0.0, 0.0, -145166.9135888712, 0.0, -187500.02235174447, -147022.93539320654, -187500.02235174447, -187500.02235174447, 0.11800000000000001, -0.002, 0.994, 192.0, 0.0, 0.0, 0.0, 0.0, 0.0, 0.0, 0.0, 0.0, 0.0, 1.709420935143739E9, 0.0, 2024-03-02 15:08:55.143
203.0, 0.0, 0.0, -145398.4776614282, 0.0, -187500.02235174447, -147205.83971808432, -187500.02235174447, -187500.02235174447, 0.11800000000000001, -0.002, 0.994, 192.0, 0.0, 0.0, 0.0, 0.0, 0.0, 0.0, 0.0, 0.0, 0.0, 1.7094209351437452E9, 0.0, 2024-03-02 15:08:55.143
204.0, 0.0, 0.0, -144838.05237270027, 0.0, -187500.02235174447, -146608.3552370495, -187500.02235174447, -187500.02235174447, 0.11800000000000001, -0.002, 0.994, 192.0, 0.0, 0.0, 0.0, 0.0, 0.0, 0.0, 0.0, 0.0, 0.0, 1.7094209351437511E9, 0.0, 2024-03-02 15:08:55.143
205.0, 0.0, 0.0, -144596.67588432741, 0.0, -187500.02235174447, -146392.59384782243, -187500.02235174447, -187500.02235174447, 0.11800000000000001, -0.002, 0.994, 192.0, 0.0, 0.0, 0.0, 0.0, 0.0, 0.0, 0.0, 0.0, 0.0, 1.709420935143757E9, 0.0, 2024-03-02 15:08:55.143
206.0, 0.0, 0.0, -145124.69114359512, 0.0, -187500.02235174447, -146981.36114851967, -187500.02235174447, -187500.02235174447, 0.11800000000000001, -0.002, 0.994, 192.0, 0.0, 0.0, 0.0, 0.0, 0.0, 0.0, 0.0, 0.0, 0.0, 1.709420935143763E9, 0.0, 2024-03-02 15:08:55.143
207.0, 0.0, 0.0, -145474.56299955404, 0.0, -187500.02235174447, -147325.08627475338, -187500.02235174447, -187500.02235174447, 0.11800000000000001, -0.002, 0.994, 192.0, 0.0, 0.0, 0.0, 0.0, 0.0, 0.0, 0.0, 0.0, 0.0, 1.7094209351437688E9, 0.0, 2024-03-02 15:08:55.143
208.0, 0.0, 0.0, -145086.96139895456, 0.0, -187500.02235174447, -146888.95903694144, -187500.02235174447, -187500.02235174447, 0.11800000000000001, -0.002, 0.994, 192.0, 0.0, 0.0, 0.0, 0.0, 0.0, 0.0, 0.0, 0.0, 0.0, 1.709420935143782E9, 0.0, 2024-03-02 15:08:55.143
209.0, 0.0, 0.0, -144737.3130604402, 0.0, -187500.02235174447, -146548.05023050908, -187500.02235174447, -187500.02235174447, 0.11800000000000001, 0.0, 0.99, 192.0, 3.0, 176.0, 0.0, 0.0, 30.0, 240.0, 0.0, 0.0, 0.0, 1.709420935143788E9, 0.0, 2024-03-02 15:08:55.143
210.0, 0.0, 0.0, -145123.08181799433, 0.0, -187500.02235174447, -146984.1998200655, -187500.02235174447, -187500.02235174447, 0.11800000000000001, 0.0, 0.99, 192.0, 0.0, 0.0, 0.0, 0.0, 0.0, 0.0, 0.0, 0.0, 0.0, 1.7094209351437943E9, 0.0, 2024-03-02 15:08:55.143
211.0, 0.0, 0.0, -145604.58309705058, 0.0, -187500.02235174447, -147447.5067791351, -187500.02235174447, -187500.02235174447, 0.11800000000000001, 0.0, 0.99, 192.0, 0.0, 0.0, 0.0, 0.0, 0.0, 0.0, 0.0, 0.0, 0.0, 1.7094209351438005E9, 0.0, 2024-03-02 15:08:55.143
212.0, 0.0, 0.0, -145288.12709905233, 0.0, -187500.02235174447, -147062.721498337, -187500.02235174447, -187500.02235174447, 0.11800000000000001, 0.0, 0.99, 192.0, 0.0, 0.0, 0.0, 0.0, 0.0, 0.0, 0.0, 0.0, 0.0, 1.7094209351438065E9, 0.0, 2024-03-02 15:08:55.143
213.0, 0.0, 0.0, -144798.55684024774, 0.0, -187500.02235174447, -146573.21829476574, -187500.02235174447, -187500.02235174447, 0.11800000000000001, 0.0, 0.99, 192.0, 0.0, 0.0, 0.0, 0.0, 0.0, 0.0, 0.0, 0.0, 0.0, 1.7094209351438124E9, 0.0, 2024-03-02 15:08:55.143
214.0, 0.0, 0.0, -145048.60580546927, 0.0, -187500.02235174447, -146880.48772579286, -187500.02235174447, -187500.02235174447, 0.11800000000000001, 0.0, 0.99, 192.0, 0.0, 0.0, 0.0, 0.0, 0.0, 0.0, 0.0, 0.0, 0.0, 1.7094209351438184E9, 0.0, 2024-03-02 15:08:55.143
215.0, 0.0, 0.0, -145635.07087648762, 0.0, -187500.02235174447, -147463.68944212073, -187500.02235174447, -187500.02235174447, 0.11800000000000001, 0.0, 0.99, 192.0, 0.0, 0.0, 0.0, 0.0, 0.0, 0.0, 0.0, 0.0, 0.0, 1.7094209351438248E9, 0.0, 2024-03-02 15:08:55.143
216.0, 0.0, 0.0, -145467.36573783943, 0.0, -187500.02235174447, -147239.56850046737, -187500.02235174447, -187500.02235174447, 0.11800000000000001, 0.0, 0.99, 192.0, 0.0, 0.0, 0.0, 0.0, 0.0, 0.0, 0.0, 0.0, 0.0, 1.7094209351438308E9, 0.0, 2024-03-02 15:08:55.143
217.0, 0.0, 0.0, -144892.52357393785, 0.0, -187500.02235174447, -146684.26176121974, -187500.02235174447, -187500.02235174447, 0.11800000000000001, 0.0, 0.99, 192.0, 0.0, 0.0, 0.0, 0.0, 0.0, 0.0, 0.0, 0.0, 0.0, 1.7094209351438367E9, 0.0, 2024-03-02 15:08:55.143
218.0, 0.0, 0.0, -144990.9159530301, 0.0, -187500.02235174447, -146837.4606177164, -187500.02235174447, -187500.02235174447, 0.11800000000000001, 0.0, 0.99, 192.0, 0.0, 0.0, 0.0, 0.0, 0.0, 0.0, 0.0, 0.0, 0.0, 1.7094209351438437E9, 0.0, 2024-03-02 15:08:55.143
219.0, 0.0, 0.0, -145560.28193954015, 0.0, -187500.02235174447, -147424.86446200186, -187500.02235174447, -187500.02235174447, 0.116, 0.002, 0.99, 192.0, 3.0, 160.0, 0.0, 16.0, 30.0, 240.0, 0.0, 0.0, 0.0, 1.7094209351438498E9, 0.0, 2024-03-02 15:08:55.143
220.0, 0.0, 0.0, -145530.33060197002, 0.0, -187500.02235174447, -147331.6800393677, -187500.02235174447, -187500.02235174447, 0.116, 0.002, 0.99, 192.0, 0.0, 0.0, 0.0, 0.0, 0.0, 0.0, 0.0, 0.0, 0.0, 1.7094209351438556E9, 0.0, 2024-03-02 15:08:55.143
221.0, 0.0, 0.0, -144961.25518813793, 0.0, -187500.02235174447, -146740.1858258469, -187500.02235174447, -187500.02235174447, 0.116, 0.002, 0.99, 192.0, 0.0, 0.0, 0.0, 0.0, 0.0, 0.0, 0.0, 0.0, 0.0, 1.7094209351438615E9, 0.0, 2024-03-02 15:08:55.143
222.0, 0.0, 0.0, -144843.2379774139, 0.0, -187500.02235174447, -146692.04016829017, -187500.02235174447, -187500.02235174447, 0.116, 0.002, 0.99, 192.0, 0.0, 0.0, 0.0, 0.0, 0.0, 0.0, 0.0, 0.0, 0.0, 1.7094209351438682E9, 0.0, 2024-03-02 15:08:55.143
223.0, 0.0, 0.0, -145482.1849444133, 0.0, -187500.02235174447, -147352.3330512444, -187500.02235174447, -187500.02235174447, 0.116, 0.002, 0.99, 192.0, 0.0, 0.0, 0.0, 0.0, 0.0, 0.0, 0.0, 0.0, 0.0, 1.7094209351438742E9, 0.0, 2024-03-02 15:08:55.143
224.0, 0.0, 0.0, -145567.63566346595, 0.0, -187500.02235174447, -147379.8927521578, -187500.02235174447, -187500.02235174447, 0.116, 0.002, 0.99, 192.0, 0.0, 0.0, 0.0, 0.0, 0.0, 0.0, 0.0, 0.0, 0.0, 1.7094209351438801E9, 0.0, 2024-03-02 15:08:55.143
225.0, 0.0, 0.0, -145013.60297365225, 0.0, -187500.02235174447, -146798.52387887525, -187500.02235174447, -187500.02235174447, 0.116, 0.002, 0.99, 192.0, 0.0, 0.0, 0.0, 0.0, 0.0, 0.0, 0.0, 0.0, 0.0, 1.7094209351438863E9, 0.0, 2024-03-02 15:08:55.143
226.0, 0.0, 0.0, -144781.4801074839, 0.0, -187500.02235174447, -146632.62923152797, -187500.02235174447, -187500.02235174447, 0.116, 0.002, 0.99, 192.0, 0.0, 0.0, 0.0, 0.0, 0.0, 0.0, 0.0, 0.0, 0.0, 1.7094209351438923E9, 0.0, 2024-03-02 15:08:55.143
227.0, 0.0, 0.0, -145288.93176185273, 0.0, -187500.02235174447, -147177.11772645926, -187500.02235174447, -187500.02235174447, 0.116, 0.002, 0.99, 192.0, 0.0, 0.0, 0.0, 0.0, 0.0, 0.0, 0.0, 0.0, 0.0, 1.7094209351438985E9, 0.0, 2024-03-02 15:08:55.143
228.0, 0.0, 0.0, -145565.08756459804, 0.0, -187500.02235174447, -147403.2056216247, -187500.02235174447, -187500.02235174447, 0.116, 0.002, 0.99, 192.0, 0.0, 0.0, 0.0, 0.0, 0.0, 0.0, 0.0, 0.0, 0.0, 1.7094209351439047E9, 0.0, 2024-03-02 15:08:55.143
229.0, 0.0, 0.0, -145063.91675042114, 0.0, -187500.02235174447, -146845.19432129792, -187500.02235174447, -187500.02235174447, 0.122, 0.0, 0.994, 192.0, 3.0, 208.0, 0.0, 0.0, 31.0, 16.0, 0.0, 0.0, 0.0, 1.7094209351439106E9, 0.0, 2024-03-02 15:08:55.143
230.0, 0.0, 0.0, -144750.65705188003, 0.0, -187500.02235174447, -146553.1464282449, -187500.02235174447, -187500.02235174447, 0.122, 0.0, 0.994, 192.0, 0.0, 0.0, 0.0, 0.0, 0.0, 0.0, 0.0, 0.0, 0.0, 1.7094209351439164E9, 0.0, 2024-03-02 15:08:55.143
231.0, 0.0, 0.0, -145171.7192139291, 0.0, -187500.02235174447, -147024.5000153184, -187500.02235174447, -187500.02235174447, 0.122, 0.0, 0.994, 192.0, 0.0, 0.0, 0.0, 0.0, 0.0, 0.0, 0.0, 0.0, 0.0, 1.7094209351439223E9, 0.0, 2024-03-02 15:08:55.143
232.0, 0.0, 0.0, -145549.7095644128, 0.0, -187500.02235174447, -147371.19792356467, -187500.02235174447, -187500.02235174447, 0.122, 0.0, 0.994, 192.0, 0.0, 0.0, 0.0, 0.0, 0.0, 0.0, 0.0, 0.0, 0.0, 1.7094209351439283E9, 0.0, 2024-03-02 15:08:55.143
233.0, 0.0, 0.0, -145112.93412601165, 0.0, -187500.02235174447, -146884.28752235026, -187500.02235174447, -187500.02235174447, 0.122, 0.0, 0.994, 192.0, 0.0, 0.0, 0.0, 0.0, 0.0, 0.0, 0.0, 0.0, 0.0, 1.7094209351439345E9, 0.0, 2024-03-02 15:08:55.143
234.0, 0.0, 0.0, -144669.56492299616, 0.0, -187500.02235174447, -146460.34198526645, -187500.02235174447, -187500.02235174447, 0.122, 0.0, 0.994, 192.0, 0.0, 0.0, 0.0, 0.0, 0.0, 0.0, 0.0, 0.0, 0.0, 1.7094209351439407E9, 0.0, 2024-03-02 15:08:55.143
235.0, 0.0, 0.0, -144988.05492973982, 0.0, -187500.02235174447, -146834.01844907028, -187500.02235174447, -187500.02235174447, 0.122, 0.0, 0.994, 192.0, 0.0, 0.0, 0.0, 0.0, 0.0, 0.0, 0.0, 0.0, 0.0, 1.709420935143947E9, 0.0, 2024-03-02 15:08:55.143
236.0, 0.0, 0.0, -145455.7875342116, 0.0, -187500.02235174447, -147288.58587605786, -187500.02235174447, -187500.02235174447, 0.122, 0.0, 0.994, 192.0, 0.0, 0.0, 0.0, 0.0, 0.0, 0.0, 0.0, 0.0, 0.0, 1.7094209351439528E9, 0.0, 2024-03-02 15:08:55.143
237.0, 0.0, 0.0, -145110.83306203285, 0.0, -187500.02235174447, -146894.9716561999, -187500.02235174447, -187500.02235174447, 0.122, 0.0, 0.994, 192.0, 0.0, 0.0, 0.0, 0.0, 0.0, 0.0, 0.0, 0.0, 0.0, 1.7094209351439588E9, 0.0, 2024-03-02 15:08:55.143
238.0, 0.0, 0.0, -144561.13661064347, 0.0, -187500.02235174447, -146365.3470713314, -187500.02235174447, -187500.02235174447, 0.122, 0.0, 0.994, 192.0, 0.0, 0.0, 0.0, 0.0, 0.0, 0.0, 0.0, 0.0, 0.0, 1.7094209351439655E9, 0.0, 2024-03-02 15:08:55.143
239.0, 0.0, 0.0, -144742.65512736503, 0.0, -187500.02235174447, -146596.82173691056, -187500.02235174447, -187500.02235174447, 0.116, 0.004, 0.992, 192.0, 3.0, 160.0, 0.0, 32.0, 31.0, 0.0, 0.0, 0.0, 0.0, 1.7094209351439717E9, 0.0, 2024-03-02 15:08:55.143
240.0, 0.0, 0.0, -145280.1028227929, 0.0, -187500.02235174447, -147128.16740610212, -187500.02235174447, -187500.02235174447, 0.116, 0.004, 0.992, 192.0, 0.0, 0.0, 0.0, 0.0, 0.0, 0.0, 0.0, 0.0, 0.0, 1.7094209351439776E9, 0.0, 2024-03-02 15:08:55.143
241.0, 0.0, 0.0, -145110.1401579547, 0.0, -187500.02235174447, -146909.65675230703, -187500.02235174447, -187500.02235174447, 0.116, 0.004, 0.992, 192.0, 0.0, 0.0, 0.0, 0.0, 0.0, 0.0, 0.0, 0.0, 0.0, 1.7094209356223888E9, 0.0, 2024-03-02 15:08:55.622
242.0, 0.0, 0.0, -144548.23965409276, 0.0, -187500.02235174447, -146347.91271065627, -187500.02235174447, -187500.02235174447, 0.116, 0.004, 0.992, 192.0, 0.0, 0.0, 0.0, 0.0, 0.0, 0.0, 0.0, 0.0, 0.0, 1.7094209356224368E9, 0.0, 2024-03-02 15:08:55.622
243.0, 0.0, 0.0, -144622.22392823984, 0.0, -187500.02235174447, -146480.14563085386, -187500.02235174447, -187500.02235174447, 0.116, 0.004, 0.992, 192.0, 0.0, 0.0, 0.0, 0.0, 0.0, 0.0, 0.0, 0.0, 0.0, 1.709420935622455E9, 0.0, 2024-03-02 15:08:55.622
244.0, 0.0, 0.0, -145231.39837162476, 0.0, -187500.02235174447, -147103.5581354568, -187500.02235174447, -187500.02235174447, 0.116, 0.004, 0.992, 192.0, 0.0, 0.0, 0.0, 0.0, 0.0, 0.0, 0.0, 0.0, 0.0, 1.7094209356224756E9, 0.0, 2024-03-02 15:08:55.622
245.0, 0.0, 0.0, -145205.2244788676, 0.0, -187500.02235174447, -147013.65941925757, -187500.02235174447, -187500.02235174447, 0.116, 0.004, 0.992, 192.0, 0.0, 0.0, 0.0, 0.0, 0.0, 0.0, 0.0, 0.0, 0.0, 1.7094209356224885E9, 0.0, 2024-03-02 15:08:55.622
246.0, 0.0, 0.0, -144620.30167821667, 0.0, -187500.02235174447, -146410.29642943104, -187500.02235174447, -187500.02235174447, 0.116, 0.004, 0.992, 192.0, 0.0, 0.0, 0.0, 0.0, 0.0, 0.0, 0.0, 0.0, 0.0, 1.7094209356225035E9, 0.0, 2024-03-02 15:08:55.622
247.0, 0.0, 0.0, -144518.0647990781, 0.0, -187500.02235174447, -146364.40829806429, -187500.02235174447, -187500.02235174447, 0.116, 0.004, 0.992, 192.0, 0.0, 0.0, 0.0, 0.0, 0.0, 0.0, 0.0, 0.0, 0.0, 1.7094209356225097E9, 0.0, 2024-03-02 15:08:55.622
248.0, 0.0, 0.0, -145131.64253612072, 0.0, -187500.02235174447, -147004.60696275317, -187500.02235174447, -187500.02235174447, 0.116, 0.004, 0.992, 192.0, 0.0, 0.0, 0.0, 0.0, 0.0, 0.0, 0.0, 0.0, 0.0, 1.7094209356225152E9, 0.0, 2024-03-02 15:08:55.622
249.0, 0.0, 0.0, -145320.58183200145, 0.0, -187500.02235174447, -147141.55610103084, -187500.02235174447, -187500.02235174447, 0.112, 0.0, 0.994, 192.0, 3.0, 128.0, 0.0, 0.0, 31.0, 16.0, 0.0, 0.0, 0.0, 1.7094209356225207E9, 0.0, 2024-03-02 15:08:55.622
250.0, 0.0, 0.0, -144827.927032462, 0.0, -187500.02235174447, -146602.38732127994, -187500.02235174447, -187500.02235174447, 0.112, 0.0, 0.994, 192.0, 0.0, 0.0, 0.0, 0.0, 0.0, 0.0, 0.0, 0.0, 0.0, 1.7094209356225271E9, 0.0, 2024-03-02 15:08:55.622
251.0, 0.0, 0.0, -144600.85566054055, 0.0, -187500.02235174447, -146411.34696142044, -187500.02235174447, -187500.02235174447, 0.112, 0.0, 0.994, 192.0, 0.0, 0.0, 0.0, 0.0, 0.0, 0.0, 0.0, 0.0, 0.0, 1.7094209356225345E9, 0.0, 2024-03-02 15:08:55.622
252.0, 0.0, 0.0, -145076.47843080503, 0.0, -187500.02235174447, -146952.25917723886, -187500.02235174447, -187500.02235174447, 0.112, 0.0, 0.994, 192.0, 0.0, 0.0, 0.0, 0.0, 0.0, 0.0, 0.0, 0.0, 0.0, 1.7094209356225464E9, 0.0, 2024-03-02 15:08:55.622
253.0, 0.0, 0.0, -145425.21034779673, 0.0, -187500.02235174447, -147258.23220708754, -187500.02235174447, -187500.02235174447, 0.112, 0.0, 0.994, 192.0, 0.0, 0.0, 0.0, 0.0, 0.0, 0.0, 0.0, 0.0, 0.0, 1.709420935622552E9, 0.0, 2024-03-02 15:08:55.622
254.0, 0.0, 0.0, -144955.98017644646, 0.0, -187500.02235174447, -146736.90011941196, -187500.02235174447, -187500.02235174447, 0.112, 0.0, 0.994, 192.0, 0.0, 0.0, 0.0, 0.0, 0.0, 0.0, 0.0, 0.0, 0.0, 1.7094209356225588E9, 0.0, 2024-03-02 15:08:55.622
255.0, 0.0, 0.0, -144599.60396285105, 0.0, -187500.02235174447, -146415.92906903377, -187500.02235174447, -187500.02235174447, 0.112, 0.0, 0.994, 192.0, 0.0, 0.0, 0.0, 0.0, 0.0, 0.0, 0.0, 0.0, 0.0, 1.7094209356225643E9, 0.0, 2024-03-02 15:08:55.622
0.0, 0.0, 0.0, -145010.16080500613, 0.0, -187500.02235174447, -146878.61017925863, -187500.02235174447, -187500.02235174447, 0.112, 0.0, 0.994, 192.0, 0.0, 0.0, 0.0, 0.0, 0.0, 0.0, 0.0, 0.0, 0.0, 1.70942093562257E9, 0.0, 2024-03-02 15:08:55.622
1.0, 0.0, 0.0, -145395.68369337128, 0.0, -187500.02235174447, -147228.21381428407, -187500.02235174447, -187500.02235174447, 0.112, 0.0, 0.994, 192.0, 0.0, 0.0, 0.0, 0.0, 0.0, 0.0, 0.0, 0.0, 0.0, 1.7094209356225753E9, 0.0, 2024-03-02 15:08:55.622
2.0, 0.0, 0.0, -145029.31625000434, 0.0, -187500.02235174447, -146800.53553587623, -187500.02235174447, -187500.02235174447, 0.112, 0.0, 0.994, 192.0, 0.0, 0.0, 0.0, 0.0, 0.0, 0.0, 0.0, 0.0, 0.0, 1.7094209356225812E9, 0.0, 2024-03-02 15:08:55.622
3.0, 0.0, 0.0, -144582.8848579985, 0.0, -187500.02235174447, -146376.88057147033, -187500.02235174447, -187500.02235174447, 0.108, 0.0, 0.994, 192.0, 3.0, 96.0, 0.0, 0.0, 31.0, 16.0, 0.0, 0.0, 0.0, 1.7094209356225865E9, 0.0, 2024-03-02 15:08:55.622
4.0, 0.0, 0.0, -144841.427486113, 0.0, -187500.02235174447, -146699.1256712825, -187500.02235174447, -187500.02235174447, 0.108, 0.0, 0.994, 192.0, 0.0, 0.0, 0.0, 0.0, 0.0, 0.0, 0.0, 0.0, 0.0, 1.7094209356225924E9, 0.0, 2024-03-02 15:08:55.622
5.0, 0.0, 0.0, -145357.6633760528, 0.0, -187500.02235174447, -147213.41695945465, -187500.02235174447, -187500.02235174447, 0.108, 0.0, 0.994, 192.0, 0.0, 0.0, 0.0, 0.0, 0.0, 0.0, 0.0, 0.0, 0.0, 1.7094209356225977E9, 0.0, 2024-03-02 15:08:55.622
6.0, 0.0, 0.0, -145123.752370328, 0.0, -187500.02235174447, -146922.30783966873, -187500.02235174447, -187500.02235174447, 0.108, 0.0, 0.994, 192.0, 0.0, 0.0, 0.0, 0.0, 0.0, 0.0, 0.0, 0.0, 0.0, 1.7094209356226041E9, 0.0, 2024-03-02 15:08:55.622
7.0, 0.0, 0.0, -144492.33794121005, 0.0, -187500.02235174447, -146294.0226547745, -187500.02235174447, -187500.02235174447, 0.108, 0.0, 0.994, 192.0, 0.0, 0.0, 0.0, 0.0, 0.0, 0.0, 0.0, 0.0, 0.0, 1.7094209356226096E9, 0.0, 2024-03-02 15:08:55.622
8.0, 0.0, 0.0, -144671.33071080814, 0.0, -187500.02235174447, -146523.75388428615, -187500.02235174447, -187500.02235174447, 0.108, 0.0, 0.994, 192.0, 0.0, 0.0, 0.0, 0.0, 0.0, 0.0, 0.0, 0.0, 0.0, 1.709420935622615E9, 0.0, 2024-03-02 15:08:55.622
9.0, 0.0, 0.0, -145287.97063684114, 0.0, -187500.02235174447, -147139.07505739632, -187500.02235174447, -187500.02235174447, 0.108, 0.0, 0.994, 192.0, 0.0, 0.0, 0.0, 0.0, 0.0, 0.0, 0.0, 0.0, 0.0, 1.7094209356226206E9, 0.0, 2024-03-02 15:08:55.622
10.0, 0.0, 0.0, -145173.95438837464, 0.0, -187500.02235174447, -146962.47392445494, -187500.02235174447, -187500.02235174447, 0.108, 0.0, 0.994, 192.0, 0.0, 0.0, 0.0, 0.0, 0.0, 0.0, 0.0, 0.0, 0.0, 1.7094209356226263E9, 0.0, 2024-03-02 15:08:55.622
11.0, 0.0, 0.0, -144626.04607654168, 0.0, -187500.02235174447, -146406.31781891797, -187500.02235174447, -187500.02235174447, 0.108, 0.0, 0.994, 192.0, 0.0, 0.0, 0.0, 0.0, 0.0, 0.0, 0.0, 0.0, 0.0, 1.7094209356226318E9, 0.0, 2024-03-02 15:08:55.622
12.0, 0.0, 0.0, -144678.03623414473, 0.0, -187500.02235174447, -146514.4779103372, -187500.02235174447, -187500.02235174447, 0.108, 0.0, 0.994, 192.0, 0.0, 0.0, 0.0, 0.0, 0.0, 0.0, 0.0, 0.0, 0.0, 1.7094209356226392E9, 0.0, 2024-03-02 15:08:55.622
13.0, 0.0, 0.0, -145265.529485408, 0.0, -187500.02235174447, -147124.85934792273, -187500.02235174447, -187500.02235174447, 0.106, 0.0, 0.998, 192.0, 3.0, 80.0, 0.0, 0.0, 31.0, 48.0, 0.0, 0.0, 0.0, 1.7094209356226447E9, 0.0, 2024-03-02 15:08:55.622
14.0, 0.0, 0.0, -145236.80749378295, 0.0, -187500.02235174447, -147039.18511142556, -187500.02235174447, -187500.02235174447, 0.106, 0.0, 0.998, 192.0, 0.0, 0.0, 0.0, 0.0, 0.0, 0.0, 0.0, 0.0, 0.0, 1.70942093562265E9, 0.0, 2024-03-02 15:08:55.622
15.0, 0.0, 0.0, -144626.5378149197, 0.0, -187500.02235174447, -146398.27119091406, -187500.02235174447, -187500.02235174447, 0.106, 0.0, 0.998, 192.0, 0.0, 0.0, 0.0, 0.0, 0.0, 0.0, 0.0, 0.0, 0.0, 1.7094209356226554E9, 0.0, 2024-03-02 15:08:55.622
16.0, 0.0, 0.0, -144494.103729022, 0.0, -187500.02235174447, -146336.22274830614, -187500.02235174447, -187500.02235174447, 0.106, 0.0, 0.998, 192.0, 0.0, 0.0, 0.0, 0.0, 0.0, 0.0, 0.0, 0.0, 0.0, 1.7094209356226609E9, 0.0, 2024-03-02 15:08:55.622
17.0, 0.0, 0.0, -145062.17331435363, 0.0, -187500.02235174447, -146945.03956377978, -187500.02235174447, -187500.02235174447, 0.106, 0.0, 0.998, 192.0, 0.0, 0.0, 0.0, 0.0, 0.0, 0.0, 0.0, 0.0, 0.0, 1.7094209356226664E9, 0.0, 2024-03-02 15:08:55.622
18.0, 0.0, 0.0, -145216.66857202872, 0.0, -187500.02235174447, -147046.33766965123, -187500.02235174447, -187500.02235174447, 0.106, 0.0, 0.998, 192.0, 0.0, 0.0, 0.0, 0.0, 0.0, 0.0, 0.0, 0.0, 0.0, 1.7094209356226726E9, 0.0, 2024-03-02 15:08:55.622
19.0, 0.0, 0.0, -144696.23055413135, 0.0, -187500.02235174447, -146491.81324145952, -187500.02235174447, -187500.02235174447, 0.106, 0.0, 0.998, 192.0, 0.0, 0.0, 0.0, 0.0, 0.0, 0.0, 0.0, 0.0, 0.0, 1.709420935622678E9, 0.0, 2024-03-02 15:08:55.622
20.0, 0.0, 0.0, -144400.69578894327, 0.0, -187500.02235174447, -146243.30654660542, -187500.02235174447, -187500.02235174447, 0.106, 0.0, 0.998, 192.0, 0.0, 0.0, 0.0, 0.0, 0.0, 0.0, 0.0, 0.0, 0.0, 1.7094209356226833E9, 0.0, 2024-03-02 15:08:55.622
21.0, 0.0, 0.0, -144876.51972490785, 0.0, -187500.02235174447, -146761.59879703508, -187500.02235174447, -187500.02235174447, 0.106, 0.0, 0.998, 192.0, 0.0, 0.0, 0.0, 0.0, 0.0, 0.0, 0.0, 0.0, 0.0, 1.7094209356226888E9, 0.0, 2024-03-02 15:08:55.622
22.0, 0.0, 0.0, -145216.64622028425, 0.0, -187500.02235174447, -147056.0159750004, -187500.02235174447, -187500.02235174447, 0.106, 0.0, 0.998, 192.0, 0.0, 0.0, 0.0, 0.0, 0.0, 0.0, 0.0, 0.0, 0.0, 1.7094209356226945E9, 0.0, 2024-03-02 15:08:55.622
23.0, 0.0, 0.0, -144757.78725836126, 0.0, -187500.02235174447, -146538.21546294875, -187500.02235174447, -187500.02235174447, 0.106, -0.004, 0.99, 192.0, 3.0, 80.0, 255.0, 224.0, 30.0, 240.0, 0.0, 0.0, 0.0, 1.7094209356227002E9, 0.0, 2024-03-02 15:08:55.622
24.0, 0.0, 0.0, -144370.00684380613, 0.0, -187500.02235174447, -146182.28628424244, -187500.02235174447, -187500.02235174447, 0.106, -0.004, 0.99, 192.0, 0.0, 0.0, 0.0, 0.0, 0.0, 0.0, 0.0, 0.0, 0.0, 1.709420935622706E9, 0.0, 2024-03-02 15:08:55.622
25.0, 0.0, 0.0, -144771.8241538792, 0.0, -187500.02235174447, -146638.77596125318, -187500.02235174447, -187500.02235174447, 0.106, -0.004, 0.99, 192.0, 0.0, 0.0, 0.0, 0.0, 0.0, 0.0, 0.0, 0.0, 0.0, 1.709420935622712E9, 0.0, 2024-03-02 15:08:55.622
26.0, 0.0, 0.0, -145226.74920877806, 0.0, -187500.02235174447, -147064.6213966157, -187500.02235174447, -187500.02235174447, 0.106, -0.004, 0.99, 192.0, 0.0, 0.0, 0.0, 0.0, 0.0, 0.0, 0.0, 0.0, 0.0, 1.70942093562272E9, 0.0, 2024-03-02 15:08:55.622
27.0, 0.0, 0.0, -144905.53228921085, 0.0, -187500.02235174447, -146675.49987739325, -187500.02235174447, -187500.02235174447, 0.106, -0.004, 0.99, 192.0, 0.0, 0.0, 0.0, 0.0, 0.0, 0.0, 0.0, 0.0, 0.0, 1.7094209356227255E9, 0.0, 2024-03-02 15:08:55.622
28.0, 0.0, 0.0, -144441.86770222994, 0.0, -187500.02235174447, -146235.528139535, -187500.02235174447, -187500.02235174447, 0.106, -0.004, 0.99, 192.0, 0.0, 0.0, 0.0, 0.0, 0.0, 0.0, 0.0, 0.0, 0.0, 1.7094209356227307E9, 0.0, 2024-03-02 15:08:55.622
29.0, 0.0, 0.0, -144715.6095165741, 0.0, -187500.02235174447, -146576.3028355006, -187500.02235174447, -187500.02235174447, 0.106, -0.004, 0.99, 192.0, 0.0, 0.0, 0.0, 0.0, 0.0, 0.0, 0.0, 0.0, 0.0, 1.7094209356227365E9, 0.0, 2024-03-02 15:08:55.622
30.0, 0.0, 0.0, -145269.0834127764, 0.0, -187500.02235174447, -147141.75726673094, -187500.02235174447, -187500.02235174447, 0.106, -0.004, 0.99, 192.0, 0.0, 0.0, 0.0, 0.0, 0.0, 0.0, 0.0, 0.0, 0.0, 1.7094209356227431E9, 0.0, 2024-03-02 15:08:55.622
31.0, 0.0, 0.0, -145041.45324724357, 0.0, -187500.02235174447, -146850.3575742671, -187500.02235174447, -187500.02235174447, 0.106, -0.004, 0.99, 192.0, 0.0, 0.0, 0.0, 0.0, 0.0, 0.0, 0.0, 0.0, 0.0, 1.7094209356227484E9, 0.0, 2024-03-02 15:08:55.622
32.0, 0.0, 0.0, -144463.43713562933, 0.0, -187500.02235174447, -146254.92945372217, -187500.02235174447, -187500.02235174447, 0.106, -0.004, 0.99, 192.0, 0.0, 0.0, 0.0, 0.0, 0.0, 0.0, 0.0, 0.0, 0.0, 1.7094209356227539E9, 0.0, 2024-03-02 15:08:55.622
33.0, 0.0, 0.0, -144594.86539302653, 0.0, -187500.02235174447, -146437.90083383332, -187500.02235174447, -187500.02235174447, 0.108, 0.002, 1.0, 192.0, 3.0, 96.0, 0.0, 16.0, 31.0, 64.0, 0.0, 0.0, 0.0, 1.709420935622759E9, 0.0, 2024-03-02 15:08:55.622
34.0, 0.0, 0.0, -145169.79696390594, 0.0, -187500.02235174447, -147026.10934091918, -187500.02235174447, -187500.02235174447, 0.108, 0.002, 1.0, 192.0, 0.0, 0.0, 0.0, 0.0, 0.0, 0.0, 0.0, 0.0, 0.0, 1.7094209356227648E9, 0.0, 2024-03-02 15:08:55.622
35.0, 0.0, 0.0, -145105.4462916191, 0.0, -187500.02235174447, -146909.7685110293, -187500.02235174447, -187500.02235174447, 0.108, 0.002, 1.0, 192.0, 0.0, 0.0, 0.0, 0.0, 0.0, 0.0, 0.0, 0.0, 0.0, 1.7094209356227732E9, 0.0, 2024-03-02 15:08:55.622
36.0, 0.0, 0.0, -144559.08025015358, 0.0, -187500.02235174447, -146345.49872225508, -187500.02235174447, -187500.02235174447, 0.108, 0.002, 1.0, 192.0, 0.0, 0.0, 0.0, 0.0, 0.0, 0.0, 0.0, 0.0, 0.0, 1.709420935622779E9, 0.0, 2024-03-02 15:08:55.622
37.0, 0.0, 0.0, -144599.49220412876, 0.0, -187500.02235174447, -146437.09617103293, -187500.02235174447, -187500.02235174447, 0.108, 0.002, 1.0, 192.0, 0.0, 0.0, 0.0, 0.0, 0.0, 0.0, 0.0, 0.0, 0.0, 1.7094209356227844E9, 0.0, 2024-03-02 15:08:55.622
38.0, 0.0, 0.0, -145240.16025545125, 0.0, -187500.02235174447, -147093.49985045195, -187500.02235174447, -187500.02235174447, 0.108, 0.002, 1.0, 192.0, 0.0, 0.0, 0.0, 0.0, 0.0, 0.0, 0.0, 0.0, 0.0, 1.7094209356227896E9, 0.0, 2024-03-02 15:08:55.622
39.0, 0.0, 0.0, -145339.69257351072, 0.0, -187500.02235174447, -147134.51530152743, -187500.02235174447, -187500.02235174447, 0.108, 0.002, 1.0, 192.0, 0.0, 0.0, 0.0, 0.0, 0.0, 0.0, 0.0, 0.0, 0.0, 1.709420935622795E9, 0.0, 2024-03-02 15:08:55.622
40.0, 0.0, 0.0, -144725.73485681234, 0.0, -187500.02235174447, -146493.3778635714, -187500.02235174447, -187500.02235174447, 0.108, 0.002, 1.0, 192.0, 0.0, 0.0, 0.0, 0.0, 0.0, 0.0, 0.0, 0.0, 0.0, 1.7094209356228004E9, 0.0, 2024-03-02 15:08:55.622
41.0, 0.0, 0.0, -144573.4747735828, 0.0, -187500.02235174447, -146398.78528103654, -187500.02235174447, -187500.02235174447, 0.108, 0.002, 1.0, 192.0, 0.0, 0.0, 0.0, 0.0, 0.0, 0.0, 0.0, 0.0, 0.0, 1.7094209356228056E9, 0.0, 2024-03-02 15:08:55.622
42.0, 0.0, 0.0, -145186.89604841426, 0.0, -187500.02235174447, -147056.1724372116, -187500.02235174447, -187500.02235174447, 0.108, 0.002, 1.0, 192.0, 0.0, 0.0, 0.0, 0.0, 0.0, 0.0, 0.0, 0.0, 0.0, 1.7094209356228113E9, 0.0, 2024-03-02 15:08:55.622
43.0, 0.0, 0.0, -145465.30937734956, 0.0, -187500.02235174447, -147287.58004755736, -187500.02235174447, -187500.02235174447, 0.108, 0.002, 1.0, 192.0, 0.0, 0.0, 0.0, 0.0, 0.0, 0.0, 0.0, 0.0, 0.0, 1.7094209356228168E9, 0.0, 2024-03-02 15:08:55.622
44.0, 0.0, 0.0, -144876.78794584132, 0.0, -187500.02235174447, -146652.7234497933, -187500.02235174447, -187500.02235174447, 0.108, 0.0, 0.992, 192.0, 3.0, 96.0, 0.0, 0.0, 31.0, 0.0, 0.0, 0.0, 0.0, 1.709420935622822E9, 0.0, 2024-03-02 15:08:55.622
45.0, 0.0, 0.0, -144570.09966017006, 0.0, -187500.02235174447, -146394.51609784557, -187500.02235174447, -187500.02235174447, 0.108, 0.0, 0.992, 192.0, 0.0, 0.0, 0.0, 0.0, 0.0, 0.0, 0.0, 0.0, 0.0, 1.7094209356228273E9, 0.0, 2024-03-02 15:08:55.622
46.0, 0.0, 0.0, -145130.7484663425, 0.0, -187500.02235174447, -146998.77315745034, -187500.02235174447, -187500.02235174447, 0.108, 0.0, 0.992, 192.0, 0.0, 0.0, 0.0, 0.0, 0.0, 0.0, 0.0, 0.0, 0.0, 1.7094209356228335E9, 0.0, 2024-03-02 15:08:55.622
47.0, 0.0, 0.0, -145525.21205248978, 0.0, -187500.02235174447, -147330.4283416782, -187500.02235174447, -187500.02235174447, 0.108, 0.0, 0.992, 192.0, 0.0, 0.0, 0.0, 0.0, 0.0, 0.0, 0.0, 0.0, 0.0, 1.7094209356228387E9, 0.0, 2024-03-02 15:08:55.622
48.0, 0.0, 0.0, -145047.19764556858, 0.0, -187500.02235174447, -146781.6930153004, -187500.02235174447, -187500.02235174447, 0.108, 0.0, 0.992, 192.0, 0.0, 0.0, 0.0, 0.0, 0.0, 0.0, 0.0, 0.0, 0.0, 1.7094209356228445E9, 0.0, 2024-03-02 15:08:55.622
49.0, 0.0, 0.0, -144596.16179420493, 0.0, -187500.02235174447, -146386.53652507503, -187500.02235174447, -187500.02235174447, 0.108, 0.0, 0.992, 192.0, 0.0, 0.0, 0.0, 0.0, 0.0, 0.0, 0.0, 0.0, 0.0, 1.709420935622851E9, 0.0, 2024-03-02 15:08:55.622
50.0, 0.0, 0.0, -144929.8062836893, 0.0, -187500.02235174447, -146793.83001253963, -187500.02235174447, -187500.02235174447, 0.108, 0.0, 0.992, 192.0, 0.0, 0.0, 0.0, 0.0, 0.0, 0.0, 0.0, 0.0, 0.0, 1.709420935622856E9, 0.0, 2024-03-02 15:08:55.622
51.0, 0.0, 0.0, -145423.24339428465, 0.0, -187500.02235174447, -147268.53636128144, -187500.02235174447, -187500.02235174447, 0.108, 0.0, 0.992, 192.0, 0.0, 0.0, 0.0, 0.0, 0.0, 0.0, 0.0, 0.0, 0.0, 1.7094209356228614E9, 0.0, 2024-03-02 15:08:55.622
52.0, 0.0, 0.0, -145073.3044830924, 0.0, -187500.02235174447, -146856.88428364805, -187500.02235174447, -187500.02235174447, 0.108, 0.0, 0.992, 192.0, 0.0, 0.0, 0.0, 0.0, 0.0, 0.0, 0.0, 0.0, 0.0, 1.7094209356228676E9, 0.0, 2024-03-02 15:08:55.622
53.0, 0.0, 0.0, -144565.3610903455, 0.0, -187500.02235174447, -146356.18285610472, -187500.02235174447, -187500.02235174447, 0.108, 0.0, 0.992, 192.0, 0.0, 0.0, 0.0, 0.0, 0.0, 0.0, 0.0, 0.0, 0.0, 1.7094209356228735E9, 0.0, 2024-03-02 15:08:55.622
54.0, 0.0, 0.0, -144814.24776485536, 0.0, -187500.02235174447, -146652.14230443744, -187500.02235174447, -187500.02235174447, 0.114, 0.002, 0.988, 192.0, 3.0, 144.0, 0.0, 16.0, 30.0, 224.0, 0.0, 0.0, 0.0, 1.7094209356228802E9, 0.0, 2024-03-02 15:08:55.622
55.0, 0.0, 0.0, -145345.88400672484, 0.0, -187500.02235174447, -147181.5880753503, -187500.02235174447, -187500.02235174447, 0.114, 0.002, 0.988, 192.0, 0.0, 0.0, 0.0, 0.0, 0.0, 0.0, 0.0, 0.0, 0.0, 1.709420935622886E9, 0.0, 2024-03-02 15:08:55.622
56.0, 0.0, 0.0, -145126.18871047362, 0.0, -187500.02235174447, -146898.8161562462, -187500.02235174447, -187500.02235174447, 0.114, 0.002, 0.988, 192.0, 0.0, 0.0, 0.0, 0.0, 0.0, 0.0, 0.0, 0.0, 0.0, 1.7094209356228912E9, 0.0, 2024-03-02 15:08:55.622
57.0, 0.0, 0.0, -144564.6234827785, 0.0, -187500.02235174447, -146331.77475115954, -187500.02235174447, -187500.02235174447, 0.114, 0.002, 0.988, 192.0, 0.0, 0.0, 0.0, 0.0, 0.0, 0.0, 0.0, 0.0, 0.0, 1.7094209356228967E9, 0.0, 2024-03-02 15:08:55.622
58.0, 0.0, 0.0, -144667.44150727292, 0.0, -187500.02235174447, -146503.81612823202, -187500.02235174447, -187500.02235174447, 0.114, 0.002, 0.988, 192.0, 0.0, 0.0, 0.0, 0.0, 0.0, 0.0, 0.0, 0.0, 0.0, 1.709420935622902E9, 0.0, 2024-03-02 15:08:55.622
59.0, 0.0, 0.0, -145315.17270984326, 0.0, -187500.02235174447, -147176.4918776145, -187500.02235174447, -187500.02235174447, 0.114, 0.002, 0.988, 192.0, 0.0, 0.0, 0.0, 0.0, 0.0, 0.0, 0.0, 0.0, 0.0, 1.7094209356229072E9, 0.0, 2024-03-02 15:08:55.622
60.0, 0.0, 0.0, -145242.06015372995, 0.0, -187500.02235174447, -147038.02282071387, -187500.02235174447, -187500.02235174447, 0.114, 0.002, 0.988, 192.0, 0.0, 0.0, 0.0, 0.0, 0.0, 0.0, 0.0, 0.0, 0.0, 1.709420935622913E9, 0.0, 2024-03-02 15:08:55.622
61.0, 0.0, 0.0, -144645.62620468452, 0.0, -187500.02235174447, -146415.97377252267, -187500.02235174447, -187500.02235174447, 0.114, 0.002, 0.988, 192.0, 0.0, 0.0, 0.0, 0.0, 0.0, 0.0, 0.0, 0.0, 0.0, 1.709420935622918E9, 0.0, 2024-03-02 15:08:55.622
62.0, 0.0, 0.0, -144601.50386112975, 0.0, -187500.02235174447, -146432.5140634196, -187500.02235174447, -187500.02235174447, 0.114, 0.002, 0.988, 192.0, 0.0, 0.0, 0.0, 0.0, 0.0, 0.0, 0.0, 0.0, 0.0, 1.7094209356229236E9, 0.0, 2024-03-02 15:08:55.622
63.0, 0.0, 0.0, -145200.26239159852, 0.0, -187500.02235174447, -147043.56605333879, -187500.02235174447, -187500.02235174447, 0.114, 0.002, 0.988, 192.0, 0.0, 0.0, 0.0, 0.0, 0.0, 0.0, 0.0, 0.0, 0.0, 1.7094209356229289E9, 0.0, 2024-03-02 15:08:55.622
64.0, 0.0, 0.0, -145353.72946902865, 0.0, -187500.02235174447, -147122.89239441068, -187500.02235174447, -187500.02235174447, 0.108, 0.002, 0.986, 192.0, 3.0, 96.0, 0.0, 16.0, 30.0, 208.0, 0.0, 0.0, 0.0, 1.709420935622934E9, 0.0, 2024-03-02 15:08:55.622
65.0, 0.0, 0.0, -144767.2196945214, 0.0, -187500.02235174447, -146519.4399976063, -187500.02235174447, -187500.02235174447, 0.108, 0.002, 0.986, 192.0, 0.0, 0.0, 0.0, 0.0, 0.0, 0.0, 0.0, 0.0, 0.0, 1.7094209356229484E9, 0.0, 2024-03-02 15:08:55.622
66.0, 0.0, 0.0, -144549.08902038206, 0.0, -187500.02235174447, -146373.41605107975, -187500.02235174447, -187500.02235174447, 0.108, 0.002, 0.986, 192.0, 0.0, 0.0, 0.0, 0.0, 0.0, 0.0, 0.0, 0.0, 0.0, 1.709420935622954E9, 0.0, 2024-03-02 15:08:55.622
67.0, 0.0, 0.0, -145154.30720499842, 0.0, -187500.02235174447, -147011.80422446778, -187500.02235174447, -187500.02235174447, 0.108, 0.002, 0.986, 192.0, 0.0, 0.0, 0.0, 0.0, 0.0, 0.0, 0.0, 0.0, 0.0, 1.709420935622959E9, 0.0, 2024-03-02 15:08:55.622
68.0, 0.0, 0.0, -145412.04517031254, 0.0, -187500.02235174447, -147219.38487522423, -187500.02235174447, -187500.02235174447, 0.108, 0.002, 0.986, 192.0, 0.0, 0.0, 0.0, 0.0, 0.0, 0.0, 0.0, 0.0, 0.0, 1.7094209356229649E9, 0.0, 2024-03-02 15:08:55.622
69.0, 0.0, 0.0, -144866.4390881585, 0.0, -187500.02235174447, -146628.91884194838, -187500.02235174447, -187500.02235174447, 0.108, 0.002, 0.986, 192.0, 0.0, 0.0, 0.0, 0.0, 0.0, 0.0, 0.0, 0.0, 0.0, 1.70942093562297E9, 0.0, 2024-03-02 15:08:55.622
70.0, 0.0, 0.0, -144543.92576741287, 0.0, -187500.02235174447, -146345.9457571442, -187500.02235174447, -187500.02235174447, 0.108, 0.002, 0.986, 192.0, 0.0, 0.0, 0.0, 0.0, 0.0, 0.0, 0.0, 0.0, 0.0, 1.7094209356229756E9, 0.0, 2024-03-02 15:08:55.622
71.0, 0.0, 0.0, -145033.96541285104, 0.0, -187500.02235174447, -146894.3681590996, -187500.02235174447, -187500.02235174447, 0.108, 0.002, 0.986, 192.0, 0.0, 0.0, 0.0, 0.0, 0.0, 0.0, 0.0, 0.0, 0.0, 1.709420935622981E9, 0.0, 2024-03-02 15:08:55.622
72.0, 0.0, 0.0, -145463.8341622155, 0.0, -187500.02235174447, -147297.68303605117, -187500.02235174447, -187500.02235174447, 0.108, 0.002, 0.986, 192.0, 0.0, 0.0, 0.0, 0.0, 0.0, 0.0, 0.0, 0.0, 0.0, 1.7094209356229863E9, 0.0, 2024-03-02 15:08:55.622
73.0, 0.0, 0.0, -145005.15401424814, 0.0, -187500.02235174447, -146783.16823043444, -187500.02235174447, -187500.02235174447, 0.108, 0.002, 0.986, 192.0, 0.0, 0.0, 0.0, 0.0, 0.0, 0.0, 0.0, 0.0, 0.0, 1.709420935622992E9, 0.0, 2024-03-02 15:08:55.622
74.0, 0.0, 0.0, -144566.4116223349, 0.0, -187500.02235174447, -146363.76009747508, -187500.02235174447, -187500.02235174447, 0.11, 0.002, 0.988, 192.0, 3.0, 112.0, 0.0, 16.0, 30.0, 224.0, 0.0, 0.0, 0.0, 1.7094209356229975E9, 0.0, 2024-03-02 15:08:55.622
75.0, 0.0, 0.0, -144990.8265460523, 0.0, -187500.02235174447, -146829.88337634606, -187500.02235174447, -187500.02235174447, 0.11, 0.002, 0.988, 192.0, 0.0, 0.0, 0.0, 0.0, 0.0, 0.0, 0.0, 0.0, 0.0, 1.7094209356230032E9, 0.0, 2024-03-02 15:08:55.623
76.0, 0.0, 0.0, -145594.74832949025, 0.0, -187500.02235174447, -147404.2561536141, -187500.02235174447, -187500.02235174447, 0.11, 0.002, 0.988, 192.0, 0.0, 0.0, 0.0, 0.0, 0.0, 0.0, 0.0, 0.0, 0.0, 1.7094209356230085E9, 0.0, 2024-03-02 15:08:55.623
77.0, 0.0, 0.0, -145231.71129604714, 0.0, -187500.02235174447, -146987.1949538225, -187500.02235174447, -187500.02235174447, 0.11, 0.002, 0.988, 192.0, 0.0, 0.0, 0.0, 0.0, 0.0, 0.0, 0.0, 0.0, 0.0, 1.7094209356230137E9, 0.0, 2024-03-02 15:08:55.623
78.0, 0.0, 0.0, -144716.0118479743, 0.0, -187500.02235174447, -146501.0892154085, -187500.02235174447, -187500.02235174447, 0.11, 0.002, 0.988, 192.0, 0.0, 0.0, 0.0, 0.0, 0.0, 0.0, 0.0, 0.0, 0.0, 1.70942093562302E9, 0.0, 2024-03-02 15:08:55.623
79.0, 0.0, 0.0, -144952.49330431144, 0.0, -187500.02235174447, -146810.16913773646, -187500.02235174447, -187500.02235174447, 0.11, 0.002, 0.988, 192.0, 0.0, 0.0, 0.0, 0.0, 0.0, 0.0, 0.0, 0.0, 0.0, 1.7094209356230254E9, 0.0, 2024-03-02 15:08:55.623
80.0, 0.0, 0.0, -145539.94185208582, 0.0, -187500.02235174447, -147372.1366968318, -187500.02235174447, -187500.02235174447, 0.11, 0.002, 0.988, 192.0, 0.0, 0.0, 0.0, 0.0, 0.0, 0.0, 0.0, 0.0, 0.0, 1.709420935623031E9, 0.0, 2024-03-02 15:08:55.623
81.0, 0.0, 0.0, -145333.2105676187, 0.0, -187500.02235174447, -147097.724330154, -187500.02235174447, -187500.02235174447, 0.11, 0.002, 0.988, 192.0, 0.0, 0.0, 0.0, 0.0, 0.0, 0.0, 0.0, 0.0, 0.0, 1.7094209356230364E9, 0.0, 2024-03-02 15:08:55.623
82.0, 0.0, 0.0, -144795.5393547463, 0.0, -187500.02235174447, -146553.81698057856, -187500.02235174447, -187500.02235174447, 0.11, 0.002, 0.988, 192.0, 0.0, 0.0, 0.0, 0.0, 0.0, 0.0, 0.0, 0.0, 0.0, 1.7094209356230416E9, 0.0, 2024-03-02 15:08:55.623
83.0, 0.0, 0.0, -144887.27091399085, 0.0, -187500.02235174447, -146701.3831974725, -187500.02235174447, -187500.02235174447, 0.11, 0.002, 0.988, 192.0, 0.0, 0.0, 0.0, 0.0, 0.0, 0.0, 0.0, 0.0, 0.0, 1.7094209356230469E9, 0.0, 2024-03-02 15:08:55.623
84.0, 0.0, 0.0, -145538.8019131186, 0.0, -187500.02235174447, -147358.54683620296, -187500.02235174447, -187500.02235174447, 0.122, 0.006, 0.986, 192.0, 3.0, 208.0, 0.0, 48.0, 30.0, 208.0, 0.0, 0.0, 0.0, 1.7094209356230524E9, 0.0, 2024-03-02 15:08:55.623
85.0, 0.0, 0.0, -145503.53086036813, 0.0, -187500.02235174447, -147247.9057011492, -187500.02235174447, -187500.02235174447, 0.122, 0.006, 0.986, 192.0, 0.0, 0.0, 0.0, 0.0, 0.0, 0.0, 0.0, 0.0, 0.0, 1.7094209356230576E9, 0.0, 2024-03-02 15:08:55.623
86.0, 0.0, 0.0, -144896.47983270645, 0.0, -187500.02235174447, -146616.2006993533, -187500.02235174447, -187500.02235174447, 0.122, 0.006, 0.986, 192.0, 0.0, 0.0, 0.0, 0.0, 0.0, 0.0, 0.0, 0.0, 0.0, 1.709420935623063E9, 0.0, 2024-03-02 15:08:55.623
87.0, 0.0, 0.0, -144820.99799168087, 0.0, -187500.02235174447, -146611.3056673176, -187500.02235174447, -187500.02235174447, 0.122, 0.006, 0.986, 192.0, 0.0, 0.0, 0.0, 0.0, 0.0, 0.0, 0.0, 0.0, 0.0, 1.7094209356230686E9, 0.0, 2024-03-02 15:08:55.623
88.0, 0.0, 0.0, -145408.31242898852, 0.0, -187500.02235174447, -147214.86982284425, -187500.02235174447, -187500.02235174447, 0.122, 0.006, 0.986, 192.0, 0.0, 0.0, 0.0, 0.0, 0.0, 0.0, 0.0, 0.0, 0.0, 1.709420935623074E9, 0.0, 2024-03-02 15:08:55.623
89.0, 0.0, 0.0, -145564.6628814534, 0.0, -187500.02235174447, -147335.59159464738, -187500.02235174447, -187500.02235174447, 0.122, 0.006, 0.986, 192.0, 0.0, 0.0, 0.0, 0.0, 0.0, 0.0, 0.0, 0.0, 0.0, 1.7094209356230793E9, 0.0, 2024-03-02 15:08:55.623
90.0, 0.0, 0.0, -145001.39892117964, 0.0, -187500.02235174447, -146742.10807587006, -187500.02235174447, -187500.02235174447, 0.122, 0.006, 0.986, 192.0, 0.0, 0.0, 0.0, 0.0, 0.0, 0.0, 0.0, 0.0, 0.0, 1.7094209356230848E9, 0.0, 2024-03-02 15:08:55.623
91.0, 0.0, 0.0, -144813.5325090328, 0.0, -187500.02235174447, -146606.07535911506, -187500.02235174447, -187500.02235174447, 0.122, 0.006, 0.986, 192.0, 0.0, 0.0, 0.0, 0.0, 0.0, 0.0, 0.0, 0.0, 0.0, 1.70942093562309E9, 0.0, 2024-03-02 15:08:55.623
92.0, 0.0, 0.0, -145356.36697487437, 0.0, -187500.02235174447, -147195.96024703508, -187500.02235174447, -187500.02235174447, 0.122, 0.006, 0.986, 192.0, 0.0, 0.0, 0.0, 0.0, 0.0, 0.0, 0.0, 0.0, 0.0, 1.7094209356230955E9, 0.0, 2024-03-02 15:08:55.623
93.0, 0.0, 0.0, -145655.8803505755, 0.0, -187500.02235174447, -147442.7458575661, -187500.02235174447, -187500.02235174447, 0.122, 0.006, 0.986, 192.0, 0.0, 0.0, 0.0, 0.0, 0.0, 0.0, 0.0, 0.0, 0.0, 1.7094209356231008E9, 0.0, 2024-03-02 15:08:55.623
94.0, 0.0, 0.0, -145158.97871958956, 0.0, -187500.02235174447, -146888.48965030786, -187500.02235174447, -187500.02235174447, 0.128, 0.002, 1.006, 192.0, 4.0, 0.0, 0.0, 16.0, 31.0, 112.0, 0.0, 0.0, 0.0, 1.7094209356231067E9, 0.0, 2024-03-02 15:08:55.623
95.0, 0.0, 0.0, -144773.0758515687, 0.0, -187500.02235174447, -146549.30192819858, -187500.02235174447, -187500.02235174447, 0.128, 0.002, 1.006, 192.0, 0.0, 0.0, 0.0, 0.0, 0.0, 0.0, 0.0, 0.0, 0.0, 1.7094209356231122E9, 0.0, 2024-03-02 15:08:55.623
96.0, 0.0, 0.0, -145244.1835694532, 0.0, -187500.02235174447, -147062.1180012367, -187500.02235174447, -187500.02235174447, 0.128, 0.002, 1.006, 192.0, 0.0, 0.0, 0.0, 0.0, 0.0, 0.0, 0.0, 0.0, 0.0, 1.7094209356231177E9, 0.0, 2024-03-02 15:08:55.623
97.0, 0.0, 0.0, -145726.57891828765, 0.0, -187500.02235174447, -147520.75344571512, -187500.02235174447, -187500.02235174447, 0.128, 0.002, 1.006, 192.0, 0.0, 0.0, 0.0, 0.0, 0.0, 0.0, 0.0, 0.0, 0.0, 1.7094209356231227E9, 0.0, 2024-03-02 15:08:55.623
98.0, 0.0, 0.0, -145299.88411663583, 0.0, -187500.02235174447, -147048.2152161855, -187500.02235174447, -187500.02235174447, 0.128, 0.002, 1.006, 192.0, 0.0, 0.0, 0.0, 0.0, 0.0, 0.0, 0.0, 0.0, 0.0, 1.709420935623128E9, 0.0, 2024-03-02 15:08:55.623
99.0, 0.0, 0.0, -144825.177767894, 0.0, -187500.02235174447, -146583.56715244855, -187500.02235174447, -187500.02235174447, 0.128, 0.002, 1.006, 192.0, 0.0, 0.0, 0.0, 0.0, 0.0, 0.0, 0.0, 0.0, 0.0, 1.7094209356231334E9, 0.0, 2024-03-02 15:08:55.623
100.0, 0.0, 0.0, -145199.9718189206, 0.0, -187500.02235174447, -147017.86154721517, -187500.02235174447, -187500.02235174447, 0.128, 0.002, 1.006, 192.0, 0.0, 0.0, 0.0, 0.0, 0.0, 0.0, 0.0, 0.0, 0.0, 1.709420935623139E9, 0.0, 2024-03-02 15:08:55.623
101.0, 0.0, 0.0, -145731.36219160107, 0.0, -187500.02235174447, -147537.0255156786, -187500.02235174447, -187500.02235174447, 0.128, 0.002, 1.006, 192.0, 0.0, 0.0, 0.0, 0.0, 0.0, 0.0, 0.0, 0.0, 0.0, 1.7094209356231444E9, 0.0, 2024-03-02 15:08:55.623
102.0, 0.0, 0.0, -145410.86052785642, 0.0, -187500.02235174447, -147150.96618544654, -187500.02235174447, -187500.02235174447, 0.128, 0.002, 1.006, 192.0, 0.0, 0.0, 0.0, 0.0, 0.0, 0.0, 0.0, 0.0, 0.0, 1.7094209356231503E9, 0.0, 2024-03-02 15:08:55.623
103.0, 0.0, 0.0, -144870.41769867155, 0.0, -187500.02235174447, -146620.51458603318, -187500.02235174447, -187500.02235174447, 0.128, 0.002, 1.006, 192.0, 0.0, 0.0, 0.0, 0.0, 0.0, 0.0, 0.0, 0.0, 0.0, 1.7094209356231556E9, 0.0, 2024-03-02 15:08:55.623
104.0, 0.0, 0.0, -145079.85354421777, 0.0, -187500.02235174447, -146890.166031142, -187500.02235174447, -187500.02235174447, 0.116, -0.002, 1.004, 192.0, 3.0, 160.0, 255.0, 240.0, 31.0, 96.0, 0.0, 0.0, 0.0, 1.709420935623161E9, 0.0, 2024-03-02 15:08:55.623
105.0, 0.0, 0.0, -145707.53523201172, 0.0, -187500.02235174447, -147518.04888463605, -187500.02235174447, -187500.02235174447, 0.116, -0.002, 1.004, 192.0, 0.0, 0.0, 0.0, 0.0, 0.0, 0.0, 0.0, 0.0, 0.0, 1.7094209357576687E9, 0.0, 2024-03-02 15:08:55.757
106.0, 0.0, 0.0, -145552.19060804733, 0.0, -187500.02235174447, -147307.18252744467, -187500.02235174447, -187500.02235174447, 0.116, -0.002, 1.004, 192.0, 0.0, 0.0, 0.0, 0.0, 0.0, 0.0, 0.0, 0.0, 0.0, 1.709420935757688E9, 0.0, 2024-03-02 15:08:55.757
107.0, 0.0, 0.0, -144974.7109383, 0.0, -187500.02235174447, -146718.5269854697, -187500.02235174447, -187500.02235174447, 0.116, -0.002, 1.004, 192.0, 0.0, 0.0, 0.0, 0.0, 0.0, 0.0, 0.0, 0.0, 0.0, 1.7094209357576945E9, 0.0, 2024-03-02 15:08:55.757
108.0, 0.0, 0.0, -145016.28518298687, 0.0, -187500.02235174447, -146820.80856809719, -187500.02235174447, -187500.02235174447, 0.116, -0.002, 1.004, 192.0, 0.0, 0.0, 0.0, 0.0, 0.0, 0.0, 0.0, 0.0, 0.0, 1.7094209357577004E9, 0.0, 2024-03-02 15:08:55.757
109.0, 0.0, 0.0, -145611.19921340933, 0.0, -187500.02235174447, -147446.07626748996, -187500.02235174447, -187500.02235174447, 0.116, -0.002, 1.004, 192.0, 0.0, 0.0, 0.0, 0.0, 0.0, 0.0, 0.0, 0.0, 0.0, 1.7094209357577064E9, 0.0, 2024-03-02 15:08:55.757
110.0, 0.0, 0.0, -145646.17969348188, 0.0, -187500.02235174447, -147413.48742407412, -187500.02235174447, -187500.02235174447, 0.116, -0.002, 1.004, 192.0, 0.0, 0.0, 0.0, 0.0, 0.0, 0.0, 0.0, 0.0, 0.0, 1.7094209357577257E9, 0.0, 2024-03-02 15:08:55.757
111.0, 0.0, 0.0, -145059.55816025237, 0.0, -187500.02235174447, -146799.3508934201, -187500.02235174447, -187500.02235174447, 0.116, -0.002, 1.004, 192.0, 0.0, 0.0, 0.0, 0.0, 0.0, 0.0, 0.0, 0.0, 0.0, 1.709420935757732E9, 0.0, 2024-03-02 15:08:55.757
112.0, 0.0, 0.0, -144941.20567336152, 0.0, -187500.02235174447, -146744.03032589323, -187500.02235174447, -187500.02235174447, 0.116, -0.002, 1.004, 192.0, 0.0, 0.0, 0.0, 0.0, 0.0, 0.0, 0.0, 0.0, 0.0, 1.7094209357577376E9, 0.0, 2024-03-02 15:08:55.757
113.0, 0.0, 0.0, -145511.21986046075, 0.0, -187500.02235174447, -147363.0842403274, -187500.02235174447, -187500.02235174447, 0.116, -0.002, 1.004, 192.0, 0.0, 0.0, 0.0, 0.0, 0.0, 0.0, 0.0, 0.0, 0.0, 1.7094209357577436E9, 0.0, 2024-03-02 15:08:55.757
114.0, 0.0, 0.0, -145699.4886040078, 0.0, -187500.02235174447, -147511.07514036598, -187500.02235174447, -187500.02235174447, 0.11800000000000001, 0.004, 0.998, 192.0, 3.0, 176.0, 0.0, 32.0, 31.0, 48.0, 0.0, 0.0, 0.0, 1.7094209357577496E9, 0.0, 2024-03-02 15:08:55.757
115.0, 0.0, 0.0, -145150.88738809674, 0.0, -187500.02235174447, -146907.04159820577, -187500.02235174447, -187500.02235174447, 0.11800000000000001, 0.004, 0.998, 192.0, 0.0, 0.0, 0.0, 0.0, 0.0, 0.0, 0.0, 0.0, 0.0, 1.7094209357577555E9, 0.0, 2024-03-02 15:08:55.757
116.0, 0.0, 0.0, -144898.58089668525, 0.0, -187500.02235174447, -146702.14315678398, -187500.02235174447, -187500.02235174447, 0.11800000000000001, 0.004, 0.998, 192.0, 0.0, 0.0, 0.0, 0.0, 0.0, 0.0, 0.0, 0.0, 0.0, 1.7094209357577608E9, 0.0, 2024-03-02 15:08:55.757
117.0, 0.0, 0.0, -145424.4727402297, 0.0, -187500.02235174447, -147270.30214909342, -187500.02235174447, -187500.02235174447, 0.11800000000000001, 0.004, 0.998, 192.0, 0.0, 0.0, 0.0, 0.0, 0.0, 0.0, 0.0, 0.0, 0.0, 1.7094209357577665E9, 0.0, 2024-03-02 15:08:55.757
118.0, 0.0, 0.0, -145750.6070435771, 0.0, -187500.02235174447, -147546.36854486092, -187500.02235174447, -187500.02235174447, 0.11800000000000001, 0.004, 0.998, 192.0, 0.0, 0.0, 0.0, 0.0, 0.0, 0.0, 0.0, 0.0, 0.0, 1.709420935757772E9, 0.0, 2024-03-02 15:08:55.757
119.0, 0.0, 0.0, -145235.42168562673, 0.0, -187500.02235174447, -146991.41943352454, -187500.02235174447, -187500.02235174447, 0.11800000000000001, 0.004, 0.998, 192.0, 0.0, 0.0, 0.0, 0.0, 0.0, 0.0, 0.0, 0.0, 0.0, 1.709420935757778E9, 0.0, 2024-03-02 15:08:55.757
120.0, 0.0, 0.0, -144819.36631433564, 0.0, -187500.02235174447, -146609.91985916137, -187500.02235174447, -187500.02235174447, 0.11800000000000001, 0.004, 0.998, 192.0, 0.0, 0.0, 0.0, 0.0, 0.0, 0.0, 0.0, 0.0, 0.0, 1.709420935757784E9, 0.0, 2024-03-02 15:08:55.757
121.0, 0.0, 0.0, -145188.28185657048, 0.0, -187500.02235174447, -147019.73909374943, -187500.02235174447, -187500.02235174447, 0.11800000000000001, 0.004, 0.998, 192.0, 0.0, 0.0, 0.0, 0.0, 0.0, 0.0, 0.0, 0.0, 0.0, 1.7094209357577891E9, 0.0, 2024-03-02 15:08:55.757
122.0, 0.0, 0.0, -145651.36529819554, 0.0, -187500.02235174447, -147449.63019485836, -187500.02235174447, -187500.02235174447, 0.11800000000000001, 0.004, 0.998, 192.0, 0.0, 0.0, 0.0, 0.0, 0.0, 0.0, 0.0, 0.0, 0.0, 1.7094209357577949E9, 0.0, 2024-03-02 15:08:55.757
123.0, 0.0, 0.0, -145230.7278192911, 0.0, -187500.02235174447, -146973.6945001715, -187500.02235174447, -187500.02235174447, 0.11800000000000001, 0.004, 0.998, 192.0, 0.0, 0.0, 0.0, 0.0, 0.0, 0.0, 0.0, 0.0, 0.0, 1.7094209357578003E9, 0.0, 2024-03-02 15:08:55.757
124.0, 0.0, 0.0, -144672.38124279754, 0.0, -187500.02235174447, -146431.12825526338, -187500.02235174447, -187500.02235174447, 0.116, 0.002, 0.992, 192.0, 3.0, 160.0, 0.0, 16.0, 31.0, 0.0, 0.0, 0.0, 0.0, 1.709420935757806E9, 0.0, 2024-03-02 15:08:55.757
125.0, 0.0, 0.0, -144909.73441716845, 0.0, -187500.02235174447, -146716.87295638002, -187500.02235174447, -187500.02235174447, 0.116, 0.002, 0.992, 192.0, 0.0, 0.0, 0.0, 0.0, 0.0, 0.0, 0.0, 0.0, 0.0, 1.7094209357578115E9, 0.0, 2024-03-02 15:08:55.757
126.0, 0.0, 0.0, -145442.93528114978, 0.0, -187500.02235174447, -147253.5159890075, -187500.02235174447, -187500.02235174447, 0.116, 0.002, 0.992, 192.0, 0.0, 0.0, 0.0, 0.0, 0.0, 0.0, 0.0, 0.0, 0.0, 1.7094209357578187E9, 0.0, 2024-03-02 15:08:55.757
127.0, 0.0, 0.0, -145117.87386153627, 0.0, -187500.02235174447, -146870.9658826549, -187500.02235174447, -187500.02235174447, 0.116, 0.002, 0.992, 192.0, 0.0, 0.0, 0.0, 0.0, 0.0, 0.0, 0.0, 0.0, 0.0, 1.7094209357578244E9, 0.0, 2024-03-02 15:08:55.757
128.0, 0.0, 0.0, -144493.79080459962, 0.0, -187500.02235174447, -146250.61556704232, -187500.02235174447, -187500.02235174447, 0.116, 0.002, 0.992, 192.0, 0.0, 0.0, 0.0, 0.0, 0.0, 0.0, 0.0, 0.0, 0.0, 1.70942093575783E9, 0.0, 2024-03-02 15:08:55.757
129.0, 0.0, 0.0, -144617.82063458214, 0.0, -187500.02235174447, -146443.08643854695, -187500.02235174447, -187500.02235174447, 0.116, 0.002, 0.992, 192.0, 0.0, 0.0, 0.0, 0.0, 0.0, 0.0, 0.0, 0.0, 0.0, 1.7094209357578354E9, 0.0, 2024-03-02 15:08:55.757
130.0, 0.0, 0.0, -145225.78808376647, 0.0, -187500.02235174447, -147054.0713732328, -187500.02235174447, -187500.02235174447, 0.116, 0.002, 0.992, 192.0, 0.0, 0.0, 0.0, 0.0, 0.0, 0.0, 0.0, 0.0, 0.0, 1.709420935757841E9, 0.0, 2024-03-02 15:08:55.757
131.0, 0.0, 0.0, -145065.05668938838, 0.0, -187500.02235174447, -146838.68996366143, -187500.02235174447, -187500.02235174447, 0.116, 0.002, 0.992, 192.0, 0.0, 0.0, 0.0, 0.0, 0.0, 0.0, 0.0, 0.0, 0.0, 1.7094209357578464E9, 0.0, 2024-03-02 15:08:55.757
132.0, 0.0, 0.0, -144469.31564442106, 0.0, -187500.02235174447, -146224.4193225407, -187500.02235174447, -187500.02235174447, 0.116, 0.002, 0.992, 192.0, 0.0, 0.0, 0.0, 0.0, 0.0, 0.0, 0.0, 0.0, 0.0, 1.7094209357578523E9, 0.0, 2024-03-02 15:08:55.757
133.0, 0.0, 0.0, -144459.97261523874, 0.0, -187500.02235174447, -146266.70882305014, -187500.02235174447, -187500.02235174447, 0.116, 0.002, 0.992, 192.0, 0.0, 0.0, 0.0, 0.0, 0.0, 0.0, 0.0, 0.0, 0.0, 1.7094209357578578E9, 0.0, 2024-03-02 15:08:55.757
134.0, 0.0, 0.0, -145037.65345068616, 0.0, -187500.02235174447, -146864.26035931832, -187500.02235174447, -187500.02235174447, 0.114, -0.002, 0.988, 192.0, 3.0, 144.0, 255.0, 240.0, 30.0, 224.0, 0.0, 0.0, 0.0, 1.7094209357578633E9, 0.0, 2024-03-02 15:08:55.757
135.0, 0.0, 0.0, -145112.48709112252, 0.0, -187500.02235174447, -146874.56451351222, -187500.02235174447, -187500.02235174447, 0.114, -0.002, 0.988, 192.0, 0.0, 0.0, 0.0, 0.0, 0.0, 0.0, 0.0, 0.0, 0.0, 1.7094209357578688E9, 0.0, 2024-03-02 15:08:55.757
136.0, 0.0, 0.0, -144466.61108334197, 0.0, -187500.02235174447, -146202.58166820786, -187500.02235174447, -187500.02235174447, 0.114, -0.002, 0.988, 192.0, 0.0, 0.0, 0.0, 0.0, 0.0, 0.0, 0.0, 0.0, 0.0, 1.7094209357578752E9, 0.0, 2024-03-02 15:08:55.757
181.0, 0.0, 0.0, -145096.23737290353, 0.0, -187500.02235174447, -146905.0746446937, -187500.02235174447, -187500.02235174447, 0.114, -0.002, 0.988, 192.0, 0.0, 0.0, 0.0, 0.0, 0.0, 0.0, 0.0, 0.0, 0.0, 1.7094209359340713E9, 0.0, 2024-03-02 15:08:55.934
182.0, 0.0, 0.0, -144486.347673696, 0.0, -187500.02235174447, -146288.65823610523, -187500.02235174447, -187500.02235174447, 0.114, -0.002, 0.988, 192.0, 0.0, 0.0, 0.0, 0.0, 0.0, 0.0, 0.0, 0.0, 0.0, 1.7094209364077077E9, 0.0, 2024-03-02 15:08:56.407
183.0, 0.0, 0.0, -144448.41676335534, 0.0, -187500.02235174447, -146299.6329426328, -187500.02235174447, -187500.02235174447, 0.114, -0.002, 0.988, 192.0, 0.0, 0.0, 0.0, 0.0, 0.0, 0.0, 0.0, 0.0, 0.0, 1.7094209364077315E9, 0.0, 2024-03-02 15:08:56.407
184.0, 0.0, 0.0, -145026.47757845852, 0.0, -187500.02235174447, -146898.9279149685, -187500.02235174447, -187500.02235174447, 0.112, 0.004, 0.99, 192.0, 3.0, 128.0, 0.0, 32.0, 30.0, 240.0, 0.0, 0.0, 0.0, 1.709420936407748E9, 0.0, 2024-03-02 15:08:56.407
185.0, 0.0, 0.0, -145138.72803911305, 0.0, -187500.02235174447, -146956.39424996308, -187500.02235174447, -187500.02235174447, 0.112, 0.004, 0.99, 192.0, 0.0, 0.0, 0.0, 0.0, 0.0, 0.0, 0.0, 0.0, 0.0, 1.709420936407765E9, 0.0, 2024-03-02 15:08:56.407
186.0, 0.0, 0.0, -144558.85673270904, 0.0, -187500.02235174447, -146352.00307989158, -187500.02235174447, -187500.02235174447, 0.112, 0.004, 0.99, 192.0, 0.0, 0.0, 0.0, 0.0, 0.0, 0.0, 0.0, 0.0, 0.0, 1.7094209364077797E9, 0.0, 2024-03-02 15:08:56.407
187.0, 0.0, 0.0, -144382.09913755645, 0.0, -187500.02235174447, -146225.26868883, -187500.02235174447, -187500.02235174447, 0.112, 0.004, 0.99, 192.0, 0.0, 0.0, 0.0, 0.0, 0.0, 0.0, 0.0, 0.0, 0.0, 1.7094209364078E9, 0.0, 2024-03-02 15:08:56.407
188.0, 0.0, 0.0, -144972.6098743212, 0.0, -187500.02235174447, -146854.04561210223, -187500.02235174447, -187500.02235174447, 0.112, 0.004, 0.99, 192.0, 0.0, 0.0, 0.0, 0.0, 0.0, 0.0, 0.0, 0.0, 0.0, 1.7094209364078128E9, 0.0, 2024-03-02 15:08:56.407
189.0, 0.0, 0.0, -145291.01047408706, 0.0, -187500.02235174447, -147130.2908218254, -187500.02235174447, -187500.02235174447, 0.112, 0.004, 0.99, 192.0, 0.0, 0.0, 0.0, 0.0, 0.0, 0.0, 0.0, 0.0, 0.0, 1.7094209364078271E9, 0.0, 2024-03-02 15:08:56.407
190.0, 0.0, 0.0, -144773.14290680207, 0.0, -187500.02235174447, -146561.32716671552, -187500.02235174447, -187500.02235174447, 0.112, 0.004, 0.99, 192.0, 0.0, 0.0, 0.0, 0.0, 0.0, 0.0, 0.0, 0.0, 0.0, 1.709420936407833E9, 0.0, 2024-03-02 15:08:56.407
191.0, 0.0, 0.0, -144363.4801344252, 0.0, -187500.02235174447, -146188.94710409013, -187500.02235174447, -187500.02235174447, 0.112, 0.004, 0.99, 192.0, 0.0, 0.0, 0.0, 0.0, 0.0, 0.0, 0.0, 0.0, 0.0, 1.7094209364078388E9, 0.0, 2024-03-02 15:08:56.407
192.0, 0.0, 0.0, -144837.8735587446, 0.0, -187500.02235174447, -146714.25780227873, -187500.02235174447, -187500.02235174447, 0.112, 0.004, 0.99, 192.0, 0.0, 0.0, 0.0, 0.0, 0.0, 0.0, 0.0, 0.0, 0.0, 1.7094209364078443E9, 0.0, 2024-03-02 15:08:56.407
193.0, 0.0, 0.0, -145310.56825048546, 0.0, -187500.02235174447, -147155.39183084868, -187500.02235174447, -187500.02235174447, 0.112, 0.004, 0.99, 192.0, 0.0, 0.0, 0.0, 0.0, 0.0, 0.0, 0.0, 0.0, 0.0, 1.7094209364078496E9, 0.0, 2024-03-02 15:08:56.407
194.0, 0.0, 0.0, -144921.0667516073, 0.0, -187500.02235174447, -146713.45313947834, -187500.02235174447, -187500.02235174447, 0.11, 0.0, 0.994, 192.0, 3.0, 112.0, 0.0, 0.0, 31.0, 16.0, 0.0, 0.0, 0.0, 1.7094209364078565E9, 0.0, 2024-03-02 15:08:56.407
195.0, 0.0, 0.0, -144496.96475231228, 0.0, -187500.02235174447, -146316.4414544632, -187500.02235174447, -187500.02235174447, 0.11, 0.0, 0.994, 192.0, 0.0, 0.0, 0.0, 0.0, 0.0, 0.0, 0.0, 0.0, 0.0, 1.7094209364078639E9, 0.0, 2024-03-02 15:08:56.407
196.0, 0.0, 0.0, -144833.06793368675, 0.0, -187500.02235174447, -146705.65238066347, -187500.02235174447, -187500.02235174447, 0.11, 0.0, 0.994, 192.0, 0.0, 0.0, 0.0, 0.0, 0.0, 0.0, 0.0, 0.0, 0.0, 1.709420936407869E9, 0.0, 2024-03-02 15:08:56.407
197.0, 0.0, 0.0, -145361.10554469892, 0.0, -187500.02235174447, -147221.59769792532, -187500.02235174447, -187500.02235174447, 0.11, 0.0, 0.994, 192.0, 0.0, 0.0, 0.0, 0.0, 0.0, 0.0, 0.0, 0.0, 0.0, 1.7094209364078743E9, 0.0, 2024-03-02 15:08:56.407
198.0, 0.0, 0.0, -145131.73194309854, 0.0, -187500.02235174447, -146936.6800113535, -187500.02235174447, -187500.02235174447, 0.11, 0.0, 0.994, 192.0, 0.0, 0.0, 0.0, 0.0, 0.0, 0.0, 0.0, 0.0, 0.0, 1.70942093640788E9, 0.0, 2024-03-02 15:08:56.407
199.0, 0.0, 0.0, -144587.8245935231, 0.0, -187500.02235174447, -146403.23327818315, -187500.02235174447, -187500.02235174447, 0.11, 0.0, 0.994, 192.0, 0.0, 0.0, 0.0, 0.0, 0.0, 0.0, 0.0, 0.0, 0.0, 1.7094209364078853E9, 0.0, 2024-03-02 15:08:56.407
200.0, 0.0, 0.0, -144807.96692466343, 0.0, -187500.02235174447, -146673.73408958127, -187500.02235174447, -187500.02235174447, 0.11, 0.0, 0.994, 192.0, 0.0, 0.0, 0.0, 0.0, 0.0, 0.0, 0.0, 0.0, 0.0, 1.7094209364078908E9, 0.0, 2024-03-02 15:08:56.407
201.0, 0.0, 0.0, -145453.06062138805, 0.0, -187500.02235174447, -147299.60528607434, -187500.02235174447, -187500.02235174447, 0.11, 0.0, 0.994, 192.0, 0.0, 0.0, 0.0, 0.0, 0.0, 0.0, 0.0, 0.0, 0.0, 1.7094209364078965E9, 0.0, 2024-03-02 15:08:56.407
202.0, 0.0, 0.0, -145293.2456485326, 0.0, -187500.02235174447, -147080.24526598994, -187500.02235174447, -187500.02235174447, 0.11, 0.0, 0.994, 192.0, 0.0, 0.0, 0.0, 0.0, 0.0, 0.0, 0.0, 0.0, 0.0, 1.709420936407902E9, 0.0, 2024-03-02 15:08:56.407
203.0, 0.0, 0.0, -144731.3227929262, 0.0, -187500.02235174447, -146523.19509067477, -187500.02235174447, -187500.02235174447, 0.11, 0.0, 0.994, 192.0, 0.0, 0.0, 0.0, 0.0, 0.0, 0.0, 0.0, 0.0, 0.0, 1.7094209364079072E9, 0.0, 2024-03-02 15:08:56.407
204.0, 0.0, 0.0, -144783.0223778513, 0.0, -187500.02235174447, -146655.69623180584, -187500.02235174447, -187500.02235174447, 0.11, 0.0, 0.994, 192.0, 0.0, 0.0, 0.0, 0.0, 0.0, 0.0, 0.0, 0.0, 0.0, 1.7094209364079125E9, 0.0, 2024-03-02 15:08:56.407
205.0, 0.0, 0.0, -145396.7118736162, 0.0, -187500.02235174447, -147297.25835290653, -187500.02235174447, -187500.02235174447, 0.11, 0.004, 0.994, 192.0, 3.0, 112.0, 0.0, 32.0, 31.0, 16.0, 0.0, 0.0, 0.0, 1.709420936407918E9, 0.0, 2024-03-02 15:08:56.407
206.0, 0.0, 0.0, -145458.15681912386, 0.0, -187500.02235174447, -147293.79383251595, -187500.02235174447, -187500.02235174447, 0.11, 0.004, 0.994, 192.0, 0.0, 0.0, 0.0, 0.0, 0.0, 0.0, 0.0, 0.0, 0.0, 1.7094209364079232E9, 0.0, 2024-03-02 15:08:56.407
207.0, 0.0, 0.0, -144887.31561747976, 0.0, -187500.02235174447, -146697.65045614846, -187500.02235174447, -187500.02235174447, 0.11, 0.004, 0.994, 192.0, 0.0, 0.0, 0.0, 0.0, 0.0, 0.0, 0.0, 0.0, 0.0, 1.7094209364079287E9, 0.0, 2024-03-02 15:08:56.407
208.0, 0.0, 0.0, -144750.54529315775, 0.0, -187500.02235174447, -146619.1958331103, -187500.02235174447, -187500.02235174447, 0.11, 0.004, 0.994, 192.0, 0.0, 0.0, 0.0, 0.0, 0.0, 0.0, 0.0, 0.0, 0.0, 1.7094209364079344E9, 0.0, 2024-03-02 15:08:56.407
209.0, 0.0, 0.0, -145314.41275053177, 0.0, -187500.02235174447, -147231.745389908, -187500.02235174447, -187500.02235174447, 0.11, 0.004, 0.994, 192.0, 0.0, 0.0, 0.0, 0.0, 0.0, 0.0, 0.0, 0.0, 0.0, 1.7094209364079397E9, 0.0, 2024-03-02 15:08:56.407
210.0, 0.0, 0.0, -145577.40337579293, 0.0, -187500.02235174447, -147429.24540391512, -187500.02235174447, -187500.02235174447, 0.11, 0.004, 0.994, 192.0, 0.0, 0.0, 0.0, 0.0, 0.0, 0.0, 0.0, 0.0, 0.0, 1.709420936407945E9, 0.0, 2024-03-02 15:08:56.407
211.0, 0.0, 0.0, -145014.74291261946, 0.0, -187500.02235174447, -146821.0544372862, -187500.02235174447, -187500.02235174447, 0.11, 0.004, 0.994, 192.0, 0.0, 0.0, 0.0, 0.0, 0.0, 0.0, 0.0, 0.0, 0.0, 1.7094209364079502E9, 0.0, 2024-03-02 15:08:56.407
212.0, 0.0, 0.0, -144740.82228431967, 0.0, -187500.02235174447, -146599.86157415647, -187500.02235174447, -187500.02235174447, 0.11, 0.004, 0.994, 192.0, 0.0, 0.0, 0.0, 0.0, 0.0, 0.0, 0.0, 0.0, 0.0, 1.7094209364079556E9, 0.0, 2024-03-02 15:08:56.407
213.0, 0.0, 0.0, -145266.0435755305, 0.0, -187500.02235174447, -147159.57160706184, -187500.02235174447, -187500.02235174447, 0.11, 0.004, 0.994, 192.0, 0.0, 0.0, 0.0, 0.0, 0.0, 0.0, 0.0, 0.0, 0.0, 1.709420936407961E9, 0.0, 2024-03-02 15:08:56.407
214.0, 0.0, 0.0, -145629.50529211824, 0.0, -187500.02235174447, -147480.2073812732, -187500.02235174447, -187500.02235174447, 0.11, 0.004, 0.994, 192.0, 0.0, 0.0, 0.0, 0.0, 0.0, 0.0, 0.0, 0.0, 0.0, 1.7094209364079666E9, 0.0, 2024-03-02 15:08:56.407
215.0, 0.0, 0.0, -145175.85428665334, 0.0, -187500.02235174447, -146975.12501181662, -187500.02235174447, -187500.02235174447, 0.108, 0.002, 0.992, 192.0, 3.0, 96.0, 0.0, 16.0, 31.0, 0.0, 0.0, 0.0, 0.0, 1.709420936407972E9, 0.0, 2024-03-02 15:08:56.407
216.0, 0.0, 0.0, -144764.73865088687, 0.0, -187500.02235174447, -146588.01514959516, -187500.02235174447, -187500.02235174447, 0.108, 0.002, 0.992, 192.0, 0.0, 0.0, 0.0, 0.0, 0.0, 0.0, 0.0, 0.0, 0.0, 1.7094209364079776E9, 0.0, 2024-03-02 15:08:56.407
217.0, 0.0, 0.0, -145197.1778508637, 0.0, -187500.02235174447, -147083.57567591377, -187500.02235174447, -187500.02235174447, 0.108, 0.002, 0.992, 192.0, 0.0, 0.0, 0.0, 0.0, 0.0, 0.0, 0.0, 0.0, 0.0, 1.7094209364079828E9, 0.0, 2024-03-02 15:08:56.407
218.0, 0.0, 0.0, -145696.06878710614, 0.0, -187500.02235174447, -147567.15566720435, -187500.02235174447, -187500.02235174447, 0.108, 0.002, 0.992, 192.0, 0.0, 0.0, 0.0, 0.0, 0.0, 0.0, 0.0, 0.0, 0.0, 1.7094209364079883E9, 0.0, 2024-03-02 15:08:56.407
219.0, 0.0, 0.0, -145298.18538405723, 0.0, -187500.02235174447, -147116.58920247428, -187500.02235174447, -187500.02235174447, 0.108, 0.002, 0.992, 192.0, 0.0, 0.0, 0.0, 0.0, 0.0, 0.0, 0.0, 0.0, 0.0, 1.7094209364079936E9, 0.0, 2024-03-02 15:08:56.407
220.0, 0.0, 0.0, -144794.86880241262, 0.0, -187500.02235174447, -146628.3153448481, -187500.02235174447, -187500.02235174447, 0.108, 0.002, 0.992, 192.0, 0.0, 0.0, 0.0, 0.0, 0.0, 0.0, 0.0, 0.0, 0.0, 1.7094209364079988E9, 0.0, 2024-03-02 15:08:56.407
221.0, 0.0, 0.0, -145134.48120766654, 0.0, -187500.02235174447, -147017.68273325954, -187500.02235174447, -187500.02235174447, 0.108, 0.002, 0.992, 192.0, 0.0, 0.0, 0.0, 0.0, 0.0, 0.0, 0.0, 0.0, 0.0, 1.7094209364080048E9, 0.0, 2024-03-02 15:08:56.408
222.0, 0.0, 0.0, -145743.52154058477, 0.0, -187500.02235174447, -147612.08267355952, -187500.02235174447, -187500.02235174447, 0.108, 0.002, 0.992, 192.0, 0.0, 0.0, 0.0, 0.0, 0.0, 0.0, 0.0, 0.0, 0.0, 1.70942093640801E9, 0.0, 2024-03-02 15:08:56.408
223.0, 0.0, 0.0, -145509.69994183778, 0.0, -187500.02235174447, -147314.35743741482, -187500.02235174447, -187500.02235174447, 0.108, 0.002, 0.992, 192.0, 0.0, 0.0, 0.0, 0.0, 0.0, 0.0, 0.0, 0.0, 0.0, 1.7094209364080164E9, 0.0, 2024-03-02 15:08:56.408
224.0, 0.0, 0.0, -144914.1600625706, 0.0, -187500.02235174447, -146722.30443028265, -187500.02235174447, -187500.02235174447, 0.108, 0.002, 0.992, 192.0, 0.0, 0.0, 0.0, 0.0, 0.0, 0.0, 0.0, 0.0, 0.0, 1.7094209364080217E9, 0.0, 2024-03-02 15:08:56.408
225.0, 0.0, 0.0, -145053.41143052717, 0.0, -187500.02235174447, -146933.30489794075, -187500.02235174447, -187500.02235174447, 0.108, 0.0, 0.996, 192.0, 3.0, 96.0, 0.0, 0.0, 31.0, 32.0, 0.0, 0.0, 0.0, 1.7094209364080272E9, 0.0, 2024-03-02 15:08:56.408
226.0, 0.0, 0.0, -145699.82388017463, 0.0, -187500.02235174447, -147593.9777605507, -187500.02235174447, -187500.02235174447, 0.108, 0.0, 0.996, 192.0, 0.0, 0.0, 0.0, 0.0, 0.0, 0.0, 0.0, 0.0, 0.0, 1.7094209364080327E9, 0.0, 2024-03-02 15:08:56.408
227.0, 0.0, 0.0, -145611.378027365, 0.0, -187500.02235174447, -147450.81483731448, -187500.02235174447, -187500.02235174447, 0.108, 0.0, 0.996, 192.0, 0.0, 0.0, 0.0, 0.0, 0.0, 0.0, 0.0, 0.0, 0.0, 1.7094209364080381E9, 0.0, 2024-03-02 15:08:56.408
228.0, 0.0, 0.0, -145010.00434279494, 0.0, -187500.02235174447, -146825.8600623441, -187500.02235174447, -187500.02235174447, 0.108, 0.0, 0.996, 192.0, 0.0, 0.0, 0.0, 0.0, 0.0, 0.0, 0.0, 0.0, 0.0, 1.7094209364080436E9, 0.0, 2024-03-02 15:08:56.408
229.0, 0.0, 0.0, -144940.60217626122, 0.0, -187500.02235174447, -146815.26533547227, -187500.02235174447, -187500.02235174447, 0.108, 0.0, 0.996, 192.0, 0.0, 0.0, 0.0, 0.0, 0.0, 0.0, 0.0, 0.0, 0.0, 1.7094209364080489E9, 0.0, 2024-03-02 15:08:56.408
230.0, 0.0, 0.0, -145599.39749233692, 0.0, -187500.02235174447, -147490.69034942274, -187500.02235174447, -187500.02235174447, 0.108, 0.0, 0.996, 192.0, 0.0, 0.0, 0.0, 0.0, 0.0, 0.0, 0.0, 0.0, 0.0, 1.709420936408054E9, 0.0, 2024-03-02 15:08:56.408
231.0, 0.0, 0.0, -145683.641217189, 0.0, -187500.02235174447, -147502.55912572853, -187500.02235174447, -187500.02235174447, 0.108, 0.0, 0.996, 192.0, 0.0, 0.0, 0.0, 0.0, 0.0, 0.0, 0.0, 0.0, 0.0, 1.7094209364080596E9, 0.0, 2024-03-02 15:08:56.408
232.0, 0.0, 0.0, -145130.23437622003, 0.0, -187500.02235174447, -146917.85984252213, -187500.02235174447, -187500.02235174447, 0.108, 0.0, 0.996, 192.0, 0.0, 0.0, 0.0, 0.0, 0.0, 0.0, 0.0, 0.0, 0.0, 1.7094209364080648E9, 0.0, 2024-03-02 15:08:56.408
233.0, 0.0, 0.0, -144982.466993626, 0.0, -187500.02235174447, -146822.88728033155, -187500.02235174447, -187500.02235174447, 0.108, 0.0, 0.996, 192.0, 0.0, 0.0, 0.0, 0.0, 0.0, 0.0, 0.0, 0.0, 0.0, 1.7094209364080703E9, 0.0, 2024-03-02 15:08:56.408
234.0, 0.0, 0.0, -145562.31594828557, 0.0, -187500.02235174447, -147445.6962878342, -187500.02235174447, -187500.02235174447, 0.108, 0.0, 0.996, 192.0, 0.0, 0.0, 0.0, 0.0, 0.0, 0.0, 0.0, 0.0, 0.0, 1.7094209364080756E9, 0.0, 2024-03-02 15:08:56.408
235.0, 0.0, 0.0, -145760.39710764852, 0.0, -187500.02235174447, -147592.12256576092, -187500.02235174447, -187500.02235174447, 0.112, -0.006, 0.988, 192.0, 3.0, 128.0, 255.0, 208.0, 30.0, 224.0, 0.0, 0.0, 0.0, 1.7094209364080813E9, 0.0, 2024-03-02 15:08:56.408
236.0, 0.0, 0.0, -145276.21361925764, 0.0, -187500.02235174447, -147062.22975995895, -187500.02235174447, -187500.02235174447, 0.112, -0.006, 0.988, 192.0, 0.0, 0.0, 0.0, 0.0, 0.0, 0.0, 0.0, 0.0, 0.0, 1.7094209364080863E9, 0.0, 2024-03-02 15:08:56.408
237.0, 0.0, 0.0, -144956.67308052458, 0.0, -187500.02235174447, -146795.66285558496, -187500.02235174447, -187500.02235174447, 0.112, -0.006, 0.988, 192.0, 0.0, 0.0, 0.0, 0.0, 0.0, 0.0, 0.0, 0.0, 0.0, 1.7094209364080918E9, 0.0, 2024-03-02 15:08:56.408
238.0, 0.0, 0.0, -145441.21419682674, 0.0, -187500.02235174447, -147342.4312284507, -187500.02235174447, -187500.02235174447, 0.112, -0.006, 0.988, 192.0, 0.0, 0.0, 0.0, 0.0, 0.0, 0.0, 0.0, 0.0, 0.0, 1.7094209364080973E9, 0.0, 2024-03-02 15:08:56.408
239.0, 0.0, 0.0, -145875.75446078237, 0.0, -187500.02235174447, -147731.88802383997, -187500.02235174447, -187500.02235174447, 0.112, -0.006, 0.988, 192.0, 0.0, 0.0, 0.0, 0.0, 0.0, 0.0, 0.0, 0.0, 0.0, 1.7094209364081025E9, 0.0, 2024-03-02 15:08:56.408
240.0, 0.0, 0.0, -145394.54375440406, 0.0, -187500.02235174447, -147198.3965871807, -187500.02235174447, -187500.02235174447, 0.112, -0.006, 0.988, 192.0, 0.0, 0.0, 0.0, 0.0, 0.0, 0.0, 0.0, 0.0, 0.0, 1.7094209364081082E9, 0.0, 2024-03-02 15:08:56.408
241.0, 0.0, 0.0, -144970.9558452315, 0.0, -187500.02235174447, -146803.12833823304, -187500.02235174447, -187500.02235174447, 0.112, -0.006, 0.988, 192.0, 0.0, 0.0, 0.0, 0.0, 0.0, 0.0, 0.0, 0.0, 0.0, 1.7094209364081137E9, 0.0, 2024-03-02 15:08:56.408
242.0, 0.0, 0.0, -145424.89742337435, 0.0, -187500.02235174447, -147294.88906799426, -187500.02235174447, -187500.02235174447, 0.112, -0.006, 0.988, 192.0, 0.0, 0.0, 0.0, 0.0, 0.0, 0.0, 0.0, 0.0, 0.0, 1.709420936408119E9, 0.0, 2024-03-02 15:08:56.408
243.0, 0.0, 0.0, -145908.03037977582, 0.0, -187500.02235174447, -147763.69455619986, -187500.02235174447, -187500.02235174447, 0.112, -0.006, 0.988, 192.0, 0.0, 0.0, 0.0, 0.0, 0.0, 0.0, 0.0, 0.0, 0.0, 1.7094209364081244E9, 0.0, 2024-03-02 15:08:56.408
244.0, 0.0, 0.0, -145525.21205248978, 0.0, -187500.02235174447, -147331.8812050678, -187500.02235174447, -187500.02235174447, 0.112, -0.006, 0.988, 192.0, 0.0, 0.0, 0.0, 0.0, 0.0, 0.0, 0.0, 0.0, 0.0, 1.7094209364081297E9, 0.0, 2024-03-02 15:08:56.408
245.0, 0.0, 0.0, -144987.60789485072, 0.0, -187500.02235174447, -146807.46457665737, -187500.02235174447, -187500.02235174447, 0.11, -0.002, 0.988, 192.0, 3.0, 112.0, 255.0, 240.0, 30.0, 224.0, 0.0, 0.0, 0.0, 1.7094209364081352E9, 0.0, 2024-03-02 15:08:56.408
246.0, 0.0, 0.0, -145254.55477888047, 0.0, -187500.02235174447, -147124.9264031561, -187500.02235174447, -187500.02235174447, 0.11, -0.002, 0.988, 192.0, 0.0, 0.0, 0.0, 0.0, 0.0, 0.0, 0.0, 0.0, 0.0, 1.709420936408141E9, 0.0, 2024-03-02 15:08:56.408
247.0, 0.0, 0.0, -145912.34426645568, 0.0, -187500.02235174447, -147786.76155647775, -187500.02235174447, -187500.02235174447, 0.11, -0.002, 0.988, 192.0, 0.0, 0.0, 0.0, 0.0, 0.0, 0.0, 0.0, 0.0, 0.0, 1.7094209364081461E9, 0.0, 2024-03-02 15:08:56.408
248.0, 0.0, 0.0, -145739.7440957718, 0.0, -187500.02235174447, -147555.51040834314, -187500.02235174447, -187500.02235174447, 0.11, -0.002, 0.988, 192.0, 0.0, 0.0, 0.0, 0.0, 0.0, 0.0, 0.0, 0.0, 0.0, 1.7094209364081516E9, 0.0, 2024-03-02 15:08:56.408
249.0, 0.0, 0.0, -145165.28191152596, 0.0, -187500.02235174447, -146983.5516194763, -187500.02235174447, -187500.02235174447, 0.11, -0.002, 0.988, 192.0, 0.0, 0.0, 0.0, 0.0, 0.0, 0.0, 0.0, 0.0, 0.0, 1.7094209364081569E9, 0.0, 2024-03-02 15:08:56.408
250.0, 0.0, 0.0, -145268.01052904254, 0.0, -187500.02235174447, -147147.97105168953, -187500.02235174447, -187500.02235174447, 0.11, -0.002, 0.988, 192.0, 0.0, 0.0, 0.0, 0.0, 0.0, 0.0, 0.0, 0.0, 0.0, 1.7094209364081624E9, 0.0, 2024-03-02 15:08:56.408
251.0, 0.0, 0.0, -145894.86520229164, 0.0, -187500.02235174447, -147778.20083835136, -187500.02235174447, -187500.02235174447, 0.11, -0.002, 0.988, 192.0, 0.0, 0.0, 0.0, 0.0, 0.0, 0.0, 0.0, 0.0, 0.0, 1.7094209364081683E9, 0.0, 2024-03-02 15:08:56.408
252.0, 0.0, 0.0, -145877.94493173898, 0.0, -187500.02235174447, -147689.12913669695, -187500.02235174447, -187500.02235174447, 0.11, -0.002, 0.988, 192.0, 0.0, 0.0, 0.0, 0.0, 0.0, 0.0, 0.0, 0.0, 0.0, 1.7094209364081738E9, 0.0, 2024-03-02 15:08:56.408
253.0, 0.0, 0.0, -145243.49066537508, 0.0, -187500.02235174447, -147039.54273933682, -187500.02235174447, -187500.02235174447, 0.11, -0.002, 0.988, 192.0, 0.0, 0.0, 0.0, 0.0, 0.0, 0.0, 0.0, 0.0, 0.0, 1.7094209364081795E9, 0.0, 2024-03-02 15:08:56.408
254.0, 0.0, 0.0, -145236.1816449382, 0.0, -187500.02235174447, -147099.78069064388, -187500.02235174447, -187500.02235174447, 0.11, -0.002, 0.988, 192.0, 0.0, 0.0, 0.0, 0.0, 0.0, 0.0, 0.0, 0.0, 0.0, 1.7094209364081848E9, 0.0, 2024-03-02 15:08:56.408
255.0, 0.0, 0.0, -145873.0275479588, 0.0, -187500.02235174447, -147768.61193998004, -187500.02235174447, -187500.02235174447, 0.11, 0.002, 0.994, 192.0, 3.0, 112.0, 0.0, 16.0, 31.0, 16.0, 0.0, 0.0, 0.0, 1.7094209364081903E9, 0.0, 2024-03-02 15:08:56.408
0.0, 0.0, 0.0, -145997.19148840805, 0.0, -187500.02235174447, -147830.70508607686, -187500.02235174447, -187500.02235174447, 0.11, 0.002, 0.994, 192.0, 0.0, 0.0, 0.0, 0.0, 0.0, 0.0, 0.0, 0.0, 0.0, 1.7094209364081955E9, 0.0, 2024-03-02 15:08:56.408
1.0, 0.0, 0.0, -145453.95469116626, 0.0, -187500.02235174447, -147241.6472127017, -187500.02235174447, -187500.02235174447, 0.11, 0.002, 0.994, 192.0, 0.0, 0.0, 0.0, 0.0, 0.0, 0.0, 0.0, 0.0, 0.0, 1.7094209364082007E9, 0.0, 2024-03-02 15:08:56.408
2.0, 0.0, 0.0, -145240.8308077849, 0.0, -187500.02235174447, -147081.04992879034, -187500.02235174447, -187500.02235174447, 0.11, 0.002, 0.994, 192.0, 0.0, 0.0, 0.0, 0.0, 0.0, 0.0, 0.0, 0.0, 0.0, 1.7094209364082065E9, 0.0, 2024-03-02 15:08:56.408
3.0, 0.0, 0.0, -145782.52533465927, 0.0, -187500.02235174447, -147663.58109278456, -187500.02235174447, -187500.02235174447, 0.11, 0.002, 0.994, 192.0, 0.0, 0.0, 0.0, 0.0, 0.0, 0.0, 0.0, 0.0, 0.0, 1.7094209364082203E9, 0.0, 2024-03-02 15:08:56.408
4.0, 0.0, 0.0, -146071.0193003439, 0.0, -187500.02235174447, -147907.01394164728, -187500.02235174447, -187500.02235174447, 0.11, 0.002, 0.994, 192.0, 0.0, 0.0, 0.0, 0.0, 0.0, 0.0, 0.0, 0.0, 0.0, 1.7094209364082255E9, 0.0, 2024-03-02 15:08:56.408
5.0, 0.0, 0.0, -145521.7475320992, 0.0, -187500.02235174447, -147303.74035879856, -187500.02235174447, -187500.02235174447, 0.11, 0.002, 0.994, 192.0, 0.0, 0.0, 0.0, 0.0, 0.0, 0.0, 0.0, 0.0, 0.0, 1.7094209364082313E9, 0.0, 2024-03-02 15:08:56.408
6.0, 0.0, 0.0, -145205.11272014532, 0.0, -187500.02235174447, -147017.90625070408, -187500.02235174447, -187500.02235174447, 0.11, 0.002, 0.994, 192.0, 0.0, 0.0, 0.0, 0.0, 0.0, 0.0, 0.0, 0.0, 0.0, 1.7094209364082365E9, 0.0, 2024-03-02 15:08:56.408
7.0, 0.0, 0.0, -145663.61405415705, 0.0, -187500.02235174447, -147536.8690534674, -187500.02235174447, -187500.02235174447, 0.11, 0.002, 0.994, 192.0, 0.0, 0.0, 0.0, 0.0, 0.0, 0.0, 0.0, 0.0, 0.0, 1.7094209364082417E9, 0.0, 2024-03-02 15:08:56.408
8.0, 0.0, 0.0, -146053.16025652413, 0.0, -187500.02235174447, -147912.13249112756, -187500.02235174447, -187500.02235174447, 0.11, 0.002, 0.994, 192.0, 0.0, 0.0, 0.0, 0.0, 0.0, 0.0, 0.0, 0.0, 0.0, 1.7094209364082472E9, 0.0, 2024-03-02 15:08:56.408
